 # temperature (K), theta (degree), phi (degree), abs for RE 1-2
     0.00000   180.00000   180.00000     4.42636   180.00000   180.00000     4.42636
     2.00000   180.00000   360.00000     4.42634   180.00000   360.00000     4.42634
     4.00000   180.00000   180.00000     4.42630   180.00000   180.00000     4.42630
     6.00000   180.00000   180.00000     4.42624   180.00000   180.00000     4.42624
     8.00000   180.00000   180.00000     4.42618   180.00000   180.00000     4.42618
    10.00000   180.00000   180.00000     4.42610   180.00000   180.00000     4.42610
    12.00000   180.00000   180.00000     4.42602   180.00000   180.00000     4.42602
    14.00000   180.00000   180.00000     4.42593   180.00000   180.00000     4.42593
    16.00000   180.00000   360.00000     4.42583   180.00000   360.00000     4.42583
    18.00000   180.00000   180.00000     4.42573   180.00000   180.00000     4.42573
