 # applied field (T), theta (degree), phi (degree), abs [muB/unitcell], abs [T]
       0.00000000       0.00000000       0.00000000      34.70361609       1.16013498
       0.10000000      90.00000000       4.32384050      34.72114353       1.16072091
       0.20000000      90.00000000       8.64791465      34.72050359       1.16069952
       0.30000000      90.00000000      12.10761760      34.71969716       1.16067256
       0.40000000      90.00000000      73.56721273      34.71831772       1.16062645
       0.50000000      90.00000000      70.10638286      34.71708624       1.16058528
       0.60000000      90.00000000      65.77956868      34.71541813       1.16052951
       0.70000000      90.00000000      60.58616267      34.71348267       1.16046481
       0.80000000      90.00000000      36.34022113      34.71146284       1.16039729
       0.90000000      90.00000000      45.00000000      34.71058560       1.16036796
       1.00000000      90.00000000      45.00000000      34.71082168       1.16037586
       1.10000000      90.00000000      45.00000000      34.71105773       1.16038375
       1.20000000      90.00000000      45.00000000      34.71129377       1.16039164
       1.30000000      90.00000000      45.00000000      34.71152978       1.16039953
       1.40000000      90.00000000      45.00000000      34.71176577       1.16040742
       1.50000000      90.00000000      45.00000000      34.71200174       1.16041531
       1.60000000      90.00000000      45.00000000      34.71223769       1.16042319
       1.70000000      90.00000000      45.00000000      34.71247361       1.16043108
       1.80000000      90.00000000      45.00000000      34.71270951       1.16043897
       1.90000000      90.00000000      45.00000000      34.71294539       1.16044685
       2.00000000      90.00000000      45.00000000      34.71318125       1.16045474
       2.10000000      90.00000000      45.00000000      34.71341709       1.16046262
       2.20000000      90.00000000      45.00000000      34.71365290       1.16047050
       2.30000000      90.00000000      45.00000000      34.71388870       1.16047839
       2.40000000      90.00000000      45.00000000      34.71412447       1.16048627
       2.50000000      90.00000000      45.00000000      34.71436022       1.16049415
       2.60000000      90.00000000      45.00000000      34.71459594       1.16050203
       2.70000000      90.00000000      45.00000000      34.71483165       1.16050991
       2.80000000      90.00000000      45.00000000      34.71506733       1.16051779
       2.90000000      90.00000000      45.00000000      34.71530299       1.16052567
       3.00000000      90.00000000      45.00000000      34.71553863       1.16053354
       3.10000000      90.00000000      45.00000000      34.71577425       1.16054142
       3.20000000      90.00000000      45.00000000      34.71600985       1.16054930
       3.30000000      90.00000000      45.00000000      34.71624542       1.16055717
       3.40000000      90.00000000      45.00000000      34.71648097       1.16056505
       3.50000000      90.00000000      45.00000000      34.71671650       1.16057292
       3.60000000      90.00000000      45.00000000      34.71695201       1.16058079
       3.70000000      90.00000000      45.00000000      34.71718750       1.16058866
       3.80000000      90.00000000      45.00000000      34.71742297       1.16059654
       3.90000000      90.00000000      45.00000000      34.71765841       1.16060441
       4.00000000      90.00000000      45.00000000      34.71789383       1.16061228
       4.10000000      90.00000000      45.00000000      34.71812923       1.16062015
       4.20000000      90.00000000      45.00000000      34.71836461       1.16062802
       4.30000000      90.00000000      45.00000000      34.71859997       1.16063588
       4.40000000      90.00000000      45.00000000      34.71883530       1.16064375
       4.50000000      90.00000000      45.00000000      34.71907061       1.16065162
       4.60000000      90.00000000      45.00000000      34.71930590       1.16065948
       4.70000000      90.00000000      45.00000000      34.71954117       1.16066735
       4.80000000      90.00000000      45.00000000      34.71977642       1.16067521
       4.90000000      90.00000000      45.00000000      34.72001165       1.16068308
       5.00000000      90.00000000      45.00000000      34.72024685       1.16069094
       5.10000000      90.00000000      45.00000000      34.72048204       1.16069880
       5.20000000      90.00000000      45.00000000      34.72071720       1.16070666
       5.30000000      90.00000000      45.00000000      34.72095234       1.16071452
       5.40000000      90.00000000      45.00000000      34.72118745       1.16072238
       5.50000000      90.00000000      45.00000000      34.72142255       1.16073024
       5.60000000      90.00000000      45.00000000      34.72165763       1.16073810
       5.70000000      90.00000000      45.00000000      34.72189268       1.16074596
       5.80000000      90.00000000      45.00000000      34.72212771       1.16075381
       5.90000000      90.00000000      45.00000000      34.72236272       1.16076167
       6.00000000      90.00000000      45.00000000      34.72259771       1.16076953
       6.10000000      90.00000000      45.00000000      34.72283267       1.16077738
       6.20000000      90.00000000      45.00000000      34.72306762       1.16078524
       6.30000000      90.00000000      45.00000000      34.72330254       1.16079309
       6.40000000      90.00000000      45.00000000      34.72353744       1.16080094
       6.50000000      90.00000000      45.00000000      34.72377232       1.16080879
       6.60000000      90.00000000      45.00000000      34.72400718       1.16081665
       6.70000000      90.00000000      45.00000000      34.72424202       1.16082450
       6.80000000      90.00000000      45.00000000      34.72447684       1.16083235
       6.90000000      90.00000000      45.00000000      34.72471163       1.16084019
       7.00000000      90.00000000      45.00000000      34.72494640       1.16084804
       7.10000000      90.00000000      45.00000000      34.72518115       1.16085589
       7.20000000      90.00000000      45.00000000      34.72541588       1.16086374
       7.30000000      90.00000000      45.00000000      34.72565059       1.16087158
       7.40000000      90.00000000      45.00000000      34.72588528       1.16087943
       7.50000000      90.00000000      45.00000000      34.72611994       1.16088727
       7.60000000      90.00000000      45.00000000      34.72635459       1.16089512
       7.70000000      90.00000000      45.00000000      34.72658921       1.16090296
       7.80000000      90.00000000      45.00000000      34.72682381       1.16091080
       7.90000000      90.00000000      45.00000000      34.72705839       1.16091865
       8.00000000      90.00000000      45.00000000      34.72729295       1.16092649
       8.10000000      90.00000000      45.00000000      34.72752749       1.16093433
       8.20000000      90.00000000      45.00000000      34.72776200       1.16094217
       8.30000000      90.00000000      45.00000000      34.72799649       1.16095001
       8.40000000      90.00000000      45.00000000      34.72823097       1.16095785
       8.50000000      90.00000000      45.00000000      34.72846542       1.16096568
       8.60000000      90.00000000      45.00000000      34.72869985       1.16097352
       8.70000000      90.00000000      45.00000000      34.72893426       1.16098136
       8.80000000      90.00000000      45.00000000      34.72916864       1.16098919
       8.90000000      90.00000000      45.00000000      34.72940301       1.16099703
       9.00000000      90.00000000      45.00000000      34.72963735       1.16100486
       9.10000000      90.00000000      45.00000000      34.72987168       1.16101269
       9.20000000      90.00000000      45.00000000      34.73010598       1.16102053
       9.30000000      90.00000000      45.00000000      34.73034026       1.16102836
       9.40000000      90.00000000      45.00000000      34.73057452       1.16103619
       9.50000000      90.00000000      45.00000000      34.73080875       1.16104402
       9.60000000      90.00000000      45.00000000      34.73104297       1.16105185
       9.70000000      90.00000000      45.00000000      34.73127717       1.16105968
       9.80000000      90.00000000      45.00000000      34.73151134       1.16106751
       9.90000000      90.00000000      45.00000000      34.73174549       1.16107534
      10.00000000      90.00000000      45.00000000      34.73197962       1.16108316
      10.10000000      90.00000000      45.00000000      34.73221373       1.16109099
      10.20000000      90.00000000      45.00000000      34.73244782       1.16109881
      10.30000000      90.00000000      45.00000000      34.73268189       1.16110664
      10.40000000      90.00000000      45.00000000      34.73291594       1.16111446
      10.50000000      90.00000000      45.00000000      34.73314996       1.16112229
      10.60000000      90.00000000      45.00000000      34.73338396       1.16113011
      10.70000000      90.00000000      45.00000000      34.73361795       1.16113793
      10.80000000      90.00000000      45.00000000      34.73385191       1.16114575
      10.90000000      90.00000000      45.00000000      34.73408585       1.16115357
      11.00000000      90.00000000      45.00000000      34.73431977       1.16116139
      11.10000000      90.00000000      45.00000000      34.73455367       1.16116921
      11.20000000      90.00000000      45.00000000      34.73478754       1.16117703
      11.30000000      90.00000000      45.00000000      34.73502140       1.16118485
      11.40000000      90.00000000      45.00000000      34.73525523       1.16119267
      11.50000000      90.00000000      45.00000000      34.73548905       1.16120048
      11.60000000      90.00000000      45.00000000      34.73572284       1.16120830
      11.70000000      90.00000000      45.00000000      34.73595661       1.16121611
      11.80000000      90.00000000      45.00000000      34.73619036       1.16122393
      11.90000000      90.00000000      45.00000000      34.73642409       1.16123174
      12.00000000      90.00000000      45.00000000      34.73665779       1.16123955
      12.10000000      90.00000000      45.00000000      34.73689148       1.16124736
      12.20000000      90.00000000      45.00000000      34.73712515       1.16125518
      12.30000000      90.00000000      45.00000000      34.73735879       1.16126299
      12.40000000      90.00000000      45.00000000      34.73759241       1.16127080
      12.50000000      90.00000000      45.00000000      34.73782602       1.16127861
      12.60000000      90.00000000      45.00000000      34.73805960       1.16128641
      12.70000000      90.00000000      45.00000000      34.73829316       1.16129422
      12.80000000      90.00000000      45.00000000      34.73852670       1.16130203
      12.90000000      90.00000000      45.00000000      34.73876022       1.16130984
      13.00000000      90.00000000      45.00000000      34.73899371       1.16131764
      13.10000000      90.00000000      45.00000000      34.73922719       1.16132545
      13.20000000      90.00000000      45.00000000      34.73946064       1.16133325
      13.30000000      90.00000000      45.00000000      34.73969408       1.16134106
      13.40000000      90.00000000      45.00000000      34.73992749       1.16134886
      13.50000000      90.00000000      45.00000000      34.74016088       1.16135666
      13.60000000      90.00000000      45.00000000      34.74039426       1.16136446
      13.70000000      90.00000000      45.00000000      34.74062761       1.16137226
      13.80000000      90.00000000      45.00000000      34.74086094       1.16138006
      13.90000000      90.00000000      45.00000000      34.74109424       1.16138786
      14.00000000      90.00000000      45.00000000      34.74132753       1.16139566
      14.10000000      90.00000000      45.00000000      34.74156080       1.16140346
      14.20000000      90.00000000      45.00000000      34.74179404       1.16141126
      14.30000000      90.00000000      45.00000000      34.74202727       1.16141905
      14.40000000      90.00000000      45.00000000      34.74226047       1.16142685
      14.50000000      90.00000000      45.00000000      34.74249366       1.16143464
      14.60000000      90.00000000      45.00000000      34.74272682       1.16144244
      14.70000000      90.00000000      45.00000000      34.74295996       1.16145023
      14.80000000      90.00000000      45.00000000      34.74319308       1.16145803
      14.90000000      90.00000000      45.00000000      34.74342618       1.16146582
      15.00000000      90.00000000      45.00000000      34.74365926       1.16147361
      15.10000000      90.00000000      45.00000000      34.74389232       1.16148140
      15.20000000      90.00000000      45.00000000      34.74412535       1.16148919
      15.30000000      90.00000000      45.00000000      34.74435837       1.16149698
      15.40000000      90.00000000      45.00000000      34.74459137       1.16150477
      15.50000000      90.00000000      45.00000000      34.74482434       1.16151256
      15.60000000      90.00000000      45.00000000      34.74505729       1.16152035
      15.70000000      90.00000000      45.00000000      34.74529023       1.16152813
      15.80000000      90.00000000      45.00000000      34.74552314       1.16153592
      15.90000000      90.00000000      45.00000000      34.74575603       1.16154370
      16.00000000      90.00000000      45.00000000      34.74598890       1.16155149
      16.10000000      90.00000000      45.00000000      34.74622175       1.16155927
      16.20000000      90.00000000      45.00000000      34.74645458       1.16156706
      16.30000000      90.00000000      45.00000000      34.74668739       1.16157484
      16.40000000      90.00000000      45.00000000      34.74692018       1.16158262
      16.50000000      90.00000000      45.00000000      34.74715294       1.16159040
      16.60000000      90.00000000      45.00000000      34.74738569       1.16159818
      16.70000000      90.00000000      45.00000000      34.74761842       1.16160596
      16.80000000      90.00000000      45.00000000      34.74785112       1.16161374
      16.90000000      90.00000000      45.00000000      34.74808381       1.16162152
      17.00000000      90.00000000      45.00000000      34.74831647       1.16162930
      17.10000000      90.00000000      45.00000000      34.74854911       1.16163708
      17.20000000      90.00000000      45.00000000      34.74878173       1.16164485
      17.30000000      90.00000000      45.00000000      34.74901434       1.16165263
      17.40000000      90.00000000      45.00000000      34.74924692       1.16166040
      17.50000000      90.00000000      45.00000000      34.74947948       1.16166818
      17.60000000      90.00000000      45.00000000      34.74971202       1.16167595
      17.70000000      90.00000000      45.00000000      34.74994454       1.16168373
      17.80000000      90.00000000      45.00000000      34.75017703       1.16169150
      17.90000000      90.00000000      45.00000000      34.75040951       1.16169927
      18.00000000      90.00000000      45.00000000      34.75064197       1.16170704
      18.10000000      90.00000000      45.00000000      34.75087441       1.16171481
      18.20000000      90.00000000      45.00000000      34.75110682       1.16172258
      18.30000000      90.00000000      45.00000000      34.75133922       1.16173035
      18.40000000      90.00000000      45.00000000      34.75157159       1.16173812
      18.50000000      90.00000000      45.00000000      34.75180395       1.16174589
      18.60000000      90.00000000      45.00000000      34.75203628       1.16175365
      18.70000000      90.00000000      45.00000000      34.75226859       1.16176142
      18.80000000      90.00000000      45.00000000      34.75250089       1.16176918
      18.90000000      90.00000000      45.00000000      34.75273316       1.16177695
      19.00000000      90.00000000      45.00000000      34.75296541       1.16178471
      19.10000000      90.00000000      45.00000000      34.75319764       1.16179248
      19.20000000      90.00000000      45.00000000      34.75342985       1.16180024
      19.30000000      90.00000000      45.00000000      34.75366204       1.16180800
      19.40000000      90.00000000      45.00000000      34.75389421       1.16181576
      19.50000000      90.00000000      45.00000000      34.75412636       1.16182352
      19.60000000      90.00000000      45.00000000      34.75435849       1.16183128
      19.70000000      90.00000000      45.00000000      34.75459060       1.16183904
      19.80000000      90.00000000      45.00000000      34.75482269       1.16184680
      19.90000000      90.00000000      45.00000000      34.75505476       1.16185456
      20.00000000      90.00000000      45.00000000      34.75528680       1.16186232
      20.10000000      90.00000000      45.00000000      34.75551883       1.16187007
      20.20000000      90.00000000      45.00000000      34.75575084       1.16187783
      20.30000000      90.00000000      45.00000000      34.75598282       1.16188558
      20.40000000      90.00000000      45.00000000      34.75621479       1.16189334
      20.50000000      90.00000000      45.00000000      34.75644673       1.16190109
      20.60000000      90.00000000      45.00000000      34.75667866       1.16190885
      20.70000000      90.00000000      45.00000000      34.75691056       1.16191660
      20.80000000      90.00000000      45.00000000      34.75714245       1.16192435
      20.90000000      90.00000000      45.00000000      34.75737431       1.16193210
      21.00000000      90.00000000      45.00000000      34.75760615       1.16193985
      21.10000000      90.00000000      45.00000000      34.75783798       1.16194760
      21.20000000      90.00000000      45.00000000      34.75806978       1.16195535
      21.30000000      90.00000000      45.00000000      34.75830156       1.16196310
      21.40000000      90.00000000      45.00000000      34.75853332       1.16197085
      21.50000000      90.00000000      45.00000000      34.75876506       1.16197859
      21.60000000      90.00000000      45.00000000      34.75899679       1.16198634
      21.70000000      90.00000000      45.00000000      34.75922849       1.16199409
      21.80000000      90.00000000      45.00000000      34.75946017       1.16200183
      21.90000000      90.00000000      45.00000000      34.75969183       1.16200958
      22.00000000      90.00000000      45.00000000      34.75992347       1.16201732
      22.10000000      90.00000000      45.00000000      34.76015509       1.16202506
      22.20000000      90.00000000      45.00000000      34.76038669       1.16203280
      22.30000000      90.00000000      45.00000000      34.76061827       1.16204055
      22.40000000      90.00000000      45.00000000      34.76084983       1.16204829
      22.50000000      90.00000000      45.00000000      34.76108137       1.16205603
      22.60000000      90.00000000      45.00000000      34.76131289       1.16206377
      22.70000000      90.00000000      45.00000000      34.76154439       1.16207151
      22.80000000      90.00000000      45.00000000      34.76177586       1.16207924
      22.90000000      90.00000000      45.00000000      34.76200732       1.16208698
      23.00000000      90.00000000      45.00000000      34.76223876       1.16209472
