 # applied field (T), theta (degree), phi (degree), abs for RE 3-4
     0.00000     1.58944   315.00000     0.30293     1.58944   225.00000     0.30293
     0.10000     1.76695   318.80048     0.30288     1.41946   229.73737     0.30299
     0.20000     1.94965   321.89882     0.30284     1.26053   235.72797     0.30306
     0.30000     2.13603   324.46527     0.30280     1.11797   243.36814     0.30313
     0.40000     2.32505   326.62313     0.30277     0.99962   253.06283     0.30320
     0.50000     2.51602   328.46244     0.30274     0.91586   264.99161     0.30328
     0.60000     2.70846   330.04981     0.30272     0.87774   278.69736     0.30337
     0.70000     2.90205   331.43519     0.30271     0.89233   292.87968     0.30347
     0.80000     3.09657   332.65658     0.30271     0.95840   305.95765     0.30357
     0.90000     3.29190   333.74329     0.30271     1.06759   316.96201     0.30368
     1.00000     3.48793   334.71823     0.30272     1.20935   325.75101     0.30379
     1.10000     3.68463   335.59951     0.30273     1.37467   332.63986     0.30391
     1.20000     3.88198   336.40161     0.30275     1.55703   338.04674     0.30403
     1.30000     4.07999   337.13626     0.30278     1.75203   342.33787     0.30416
     1.40000     4.27868   337.81298     0.30281     1.95677   345.79431     0.30430
     1.50000     4.47810   338.43965     0.30286     2.16932   348.62186     0.30444
     1.60000     4.67830   339.02277     0.30290     2.38839   350.96948     0.30458
     1.70000     4.87932   339.56779     0.30296     2.61311   352.94533     0.30473
     1.80000     5.08125   340.07929     0.30302     2.84286   354.62883     0.30489
     1.90000     5.28414   340.56113     0.30308     3.07724   356.07906     0.30505
     2.00000     5.51013   341.05455     0.30317     3.34284   357.50094     0.30524
     2.10000     5.71533   341.48482     0.30324     3.58627   358.59097     0.30541
     2.20000     5.92175   341.89416     0.30333     3.83368   359.55569     0.30559
     2.30000     6.12947   342.28466     0.30342     4.08500     0.41540     0.30577
     2.40000     6.36134   342.69028     0.30353     4.36938     1.29133     0.30598
     2.50000     6.57211   343.04715     0.30364     4.62890     1.97746     0.30617
     2.60000     6.80769   343.42014     0.30377     4.92264     2.68700     0.30639
     2.70000     7.02190   343.74926     0.30388     5.19033     3.24673     0.30659
     2.80000     7.26165   344.09513     0.30402     5.49345     3.83283     0.30682
     2.90000     7.47972   344.40095     0.30415     5.76937     4.29762     0.30702
     3.00000     7.72409   344.72390     0.30431     6.08198     4.78953     0.30726
     3.10000     7.97111   345.03635     0.30447     6.39973     5.24015     0.30751
     3.20000     8.19586   345.31308     0.30461     6.68852     5.59943     0.30772
     3.30000     8.44822   345.60719     0.30479     7.01602     5.98489     0.30797
     3.40000     8.70360   345.89274     0.30497     7.34880     6.34105     0.30823
     3.50000     8.96214   346.17024     0.30515     7.68693     6.67096     0.30848
     3.60000     9.22395   346.44014     0.30535     8.03045     6.97723     0.30874
     3.70000     9.51626   346.72642     0.30557     8.41698     7.30149     0.30904
     3.80000     9.78546   346.98184     0.30577     8.77214     7.56471     0.30930
     3.90000    10.05831   347.23071     0.30598     9.13286     7.81050     0.30957
     4.00000    10.36350   347.49569     0.30623     9.53897     8.07306     0.30988
     4.10000    10.64452   347.73187     0.30645     9.91164     8.28657     0.31015
     4.20000    10.95920   347.98383     0.30670    10.33134     8.51586     0.31046
     4.30000    11.27914   348.22939     0.30696    10.75831     8.72972     0.31077
     4.40000    11.60448   348.46873     0.30723    11.19261     8.92945     0.31108
     4.50000    11.93538   348.70200     0.30750    11.63426     9.11622     0.31139
     4.60000    12.27199   348.92933     0.30777    12.08330     9.29109     0.31170
     4.70000    12.64732   349.17044     0.30808    12.58535     9.47644     0.31205
     4.80000    13.03008   349.40502     0.30840    13.09662     9.64921     0.31240
     4.90000    13.42043   349.63313     0.30872    13.61709     9.81042     0.31275
     5.00000    13.81855   349.85486     0.30905    14.14678     9.96103     0.31309
     5.10000    14.22460   350.07026     0.30937    14.68566    10.10185     0.31344
     5.20000    14.67569   350.29681     0.30974    15.28410    10.24945     0.31382
     5.30000    15.13678   350.51621     0.31011    15.89361    10.38689     0.31419
     5.40000    15.60806   350.72851     0.31048    16.51411    10.51499     0.31456
     5.50000    16.12959   350.94963     0.31088    17.19903    10.64754     0.31497
     5.60000    16.66368   351.16268     0.31129    17.89681    10.77062     0.31536
     5.70000    17.25266   351.38247     0.31173    18.66303    10.89639     0.31579
     5.80000    17.85684   351.59310     0.31218    19.44389    11.01279     0.31621
     5.90000    18.52104   351.80815     0.31265    20.29719    11.13050     0.31665
     6.00000    19.24936   352.02576     0.31316    21.22606    11.24824     0.31711
     6.10000    20.04624   352.24392     0.31369    22.23364    11.36491     0.31759
     6.20000    92.41716   349.12131     0.32414    87.58284    10.87869     0.32414
     6.30000    92.41629   349.12492     0.32416    87.58371    10.87508     0.32416
     6.40000    92.41543   349.12853     0.32418    87.58457    10.87147     0.32418
     6.50000    92.41456   349.13214     0.32420    87.58544    10.86786     0.32420
     6.60000    92.41370   349.13574     0.32422    87.58630    10.86426     0.32422
     6.70000    92.41284   349.13935     0.32424    87.58716    10.86065     0.32424
     6.80000    92.41197   349.14295     0.32426    87.58803    10.85705     0.32426
     6.90000    92.41111   349.14656     0.32428    87.58889    10.85344     0.32428
     7.00000    92.41025   349.15016     0.32430    87.58975    10.84984     0.32430
     7.10000    92.40939   349.15376     0.32431    87.59061    10.84624     0.32431
     7.20000    92.40852   349.15736     0.32433    87.59148    10.84264     0.32433
     7.30000    92.40766   349.16096     0.32435    87.59234    10.83904     0.32435
     7.40000    92.40680   349.16455     0.32437    87.59320    10.83545     0.32437
     7.50000    92.40594   349.16815     0.32439    87.59406    10.83185     0.32439
     7.60000    92.40508   349.17175     0.32441    87.59492    10.82825     0.32441
     7.70000    92.40422   349.17534     0.32443    87.59578    10.82466     0.32443
     7.80000    92.40336   349.17893     0.32445    87.59664    10.82107     0.32445
     7.90000    92.40250   349.18252     0.32447    87.59750    10.81748     0.32447
     8.00000    92.40164   349.18611     0.32449    87.59836    10.81389     0.32449
     8.10000    92.40078   349.18970     0.32451    87.59922    10.81030     0.32451
     8.20000    92.39992   349.19329     0.32453    87.60008    10.80671     0.32453
     8.30000    92.39906   349.19688     0.32455    87.60094    10.80312     0.32455
     8.40000    92.39821   349.20046     0.32457    87.60179    10.79954     0.32457
     8.50000    92.39735   349.20405     0.32459    87.60265    10.79595     0.32459
     8.60000    92.39649   349.20763     0.32461    87.60351    10.79237     0.32461
     8.70000    92.39563   349.21121     0.32463    87.60437    10.78879     0.32463
     8.80000    92.39477   349.21480     0.32465    87.60523    10.78520     0.32465
     8.90000    92.39392   349.21838     0.32467    87.60608    10.78162     0.32467
     9.00000    92.39306   349.22195     0.32469    87.60694    10.77805     0.32469
     9.10000    92.39220   349.22553     0.32471    87.60780    10.77447     0.32471
     9.20000    92.39135   349.22911     0.32472    87.60865    10.77089     0.32472
     9.30000    92.39049   349.23269     0.32474    87.60951    10.76731     0.32474
     9.40000    92.38964   349.23626     0.32476    87.61036    10.76374     0.32476
     9.50000    92.38878   349.23983     0.32478    87.61122    10.76017     0.32478
     9.60000    92.38793   349.24341     0.32480    87.61207    10.75659     0.32480
     9.70000    92.38707   349.24698     0.32482    87.61293    10.75302     0.32482
     9.80000    92.38622   349.25055     0.32484    87.61378    10.74945     0.32484
     9.90000    92.38536   349.25411     0.32486    87.61464    10.74589     0.32486
    10.00000    92.38451   349.25768     0.32488    87.61549    10.74232     0.32488
    10.10000    92.38366   349.26125     0.32490    87.61634    10.73875     0.32490
    10.20000    92.38280   349.26481     0.32492    87.61720    10.73519     0.32492
    10.30000    92.38195   349.26838     0.32494    87.61805    10.73162     0.32494
    10.40000    92.38110   349.27194     0.32496    87.61890    10.72806     0.32496
    10.50000    92.38024   349.27550     0.32498    87.61976    10.72450     0.32498
    10.60000    92.37939   349.27906     0.32500    87.62061    10.72094     0.32500
    10.70000    92.37854   349.28262     0.32502    87.62146    10.71738     0.32502
    10.80000    92.37769   349.28618     0.32504    87.62231    10.71382     0.32504
    10.90000    92.37684   349.28974     0.32506    87.62316    10.71026     0.32506
    11.00000    92.37599   349.29330     0.32508    87.62401    10.70670     0.32508
    11.10000    92.37514   349.29685     0.32510    87.62486    10.70315     0.32510
    11.20000    92.37429   349.30041     0.32512    87.62571    10.69959     0.32512
    11.30000    92.37344   349.30396     0.32514    87.62656    10.69604     0.32514
    11.40000    92.37259   349.30751     0.32516    87.62741    10.69249     0.32516
    11.50000    92.37174   349.31106     0.32518    87.62826    10.68894     0.32518
    11.60000    92.37089   349.31461     0.32520    87.62911    10.68539     0.32520
    11.70000    92.37004   349.31816     0.32522    87.62996    10.68184     0.32522
    11.80000    92.36919   349.32171     0.32524    87.63081    10.67829     0.32524
    11.90000    92.36834   349.32525     0.32525    87.63166    10.67475     0.32525
    12.00000    92.36749   349.32880     0.32527    87.63251    10.67120     0.32527
    12.10000    92.36664   349.33234     0.32529    87.63336    10.66766     0.32529
    12.20000    92.36580   349.33589     0.32531    87.63420    10.66411     0.32531
    12.30000    92.36495   349.33943     0.32533    87.63505    10.66057     0.32533
    12.40000    92.36410   349.34297     0.32535    87.63590    10.65703     0.32535
    12.50000    92.36326   349.34651     0.32537    87.63674    10.65349     0.32537
    12.60000    92.36241   349.35005     0.32539    87.63759    10.64995     0.32539
    12.70000    92.36156   349.35358     0.32541    87.63844    10.64642     0.32541
    12.80000    92.36072   349.35712     0.32543    87.63928    10.64288     0.32543
    12.90000    92.35987   349.36066     0.32545    87.64013    10.63934     0.32545
    13.00000    92.35903   349.36419     0.32547    87.64097    10.63581     0.32547
    13.10000    92.35818   349.36772     0.32549    87.64182    10.63228     0.32549
    13.20000    92.35734   349.37125     0.32551    87.64266    10.62875     0.32551
    13.30000    92.35649   349.37479     0.32553    87.64351    10.62521     0.32553
    13.40000    92.35565   349.37831     0.32555    87.64435    10.62169     0.32555
    13.50000    92.35480   349.38184     0.32557    87.64520    10.61816     0.32557
    13.60000    92.35396   349.38537     0.32559    87.64604    10.61463     0.32559
    13.70000    92.35312   349.38890     0.32561    87.64688    10.61110     0.32561
    13.80000    92.35227   349.39242     0.32563    87.64773    10.60758     0.32563
    13.90000    92.35143   349.39595     0.32565    87.64857    10.60405     0.32565
    14.00000    92.35059   349.39947     0.32567    87.64941    10.60053     0.32567
    14.10000    92.34975   349.40299     0.32569    87.65025    10.59701     0.32569
    14.20000    92.34890   349.40651     0.32571    87.65110    10.59349     0.32571
    14.30000    92.34806   349.41003     0.32573    87.65194    10.58997     0.32573
    14.40000    92.34722   349.41355     0.32575    87.65278    10.58645     0.32575
    14.50000    92.34638   349.41707     0.32577    87.65362    10.58293     0.32577
    14.60000    92.34554   349.42058     0.32579    87.65446    10.57942     0.32579
    14.70000    92.34470   349.42410     0.32581    87.65530    10.57590     0.32581
    14.80000    92.34386   349.42761     0.32583    87.65614    10.57239     0.32583
    14.90000    92.34302   349.43113     0.32585    87.65698    10.56887     0.32585
    15.00000    92.34218   349.43464     0.32587    87.65782    10.56536     0.32587
    15.10000    92.34134   349.43815     0.32589    87.65866    10.56185     0.32589
    15.20000    92.34050   349.44166     0.32591    87.65950    10.55834     0.32591
    15.30000    92.33966   349.44517     0.32593    87.66034    10.55483     0.32593
    15.40000    92.33882   349.44867     0.32595    87.66118    10.55133     0.32595
    15.50000    92.33798   349.45218     0.32597    87.66202    10.54782     0.32597
    15.60000    92.33714   349.45568     0.32599    87.66286    10.54432     0.32599
    15.70000    92.33631   349.45919     0.32601    87.66369    10.54081     0.32601
    15.80000    92.33547   349.46269     0.32603    87.66453    10.53731     0.32603
    15.90000    92.33463   349.46619     0.32605    87.66537    10.53381     0.32605
    16.00000    92.33379   349.46969     0.32607    87.66621    10.53031     0.32607
    16.10000    92.33296   349.47319     0.32609    87.66704    10.52681     0.32609
    16.20000    92.33212   349.47669     0.32611    87.66788    10.52331     0.32611
    16.30000    92.33128   349.48019     0.32613    87.66872    10.51981     0.32613
    16.40000    92.33045   349.48369     0.32615    87.66955    10.51631     0.32615
    16.50000    92.32961   349.48718     0.32617    87.67039    10.51282     0.32617
    16.60000    92.32878   349.49068     0.32619    87.67122    10.50932     0.32619
    16.70000    92.32794   349.49417     0.32620    87.67206    10.50583     0.32620
    16.80000    92.32711   349.49766     0.32622    87.67289    10.50234     0.32622
    16.90000    92.32627   349.50115     0.32624    87.67373    10.49885     0.32624
    17.00000    92.32544   349.50464     0.32626    87.67456    10.49536     0.32626
    17.10000    92.32460   349.50813     0.32628    87.67540    10.49187     0.32628
    17.20000    92.32377   349.51162     0.32630    87.67623    10.48838     0.32630
    17.30000    92.32294   349.51510     0.32632    87.67706    10.48490     0.32632
    17.40000    92.32210   349.51859     0.32634    87.67790    10.48141     0.32634
    17.50000    92.32127   349.52207     0.32636    87.67873    10.47793     0.32636
    17.60000    92.32044   349.52556     0.32638    87.67956    10.47444     0.32638
    17.70000    92.31961   349.52904     0.32640    87.68039    10.47096     0.32640
    17.80000    92.31877   349.53252     0.32642    87.68123    10.46748     0.32642
    17.90000    92.31794   349.53600     0.32644    87.68206    10.46400     0.32644
    18.00000    92.31711   349.53948     0.32646    87.68289    10.46052     0.32646
    18.10000    92.31628   349.54296     0.32648    87.68372    10.45704     0.32648
    18.20000    92.31545   349.54643     0.32650    87.68455    10.45357     0.32650
    18.30000    92.31462   349.54991     0.32652    87.68538    10.45009     0.32652
    18.40000    92.31379   349.55338     0.32654    87.68621    10.44662     0.32654
    18.50000    92.31296   349.55686     0.32656    87.68704    10.44314     0.32656
    18.60000    92.31213   349.56033     0.32658    87.68787    10.43967     0.32658
    18.70000    92.31130   349.56380     0.32660    87.68870    10.43620     0.32660
    18.80000    92.31047   349.56727     0.32662    87.68953    10.43273     0.32662
    18.90000    92.30964   349.57074     0.32664    87.69036    10.42926     0.32664
    19.00000    92.30881   349.57421     0.32666    87.69119    10.42579     0.32666
    19.10000    92.30798   349.57768     0.32668    87.69202    10.42232     0.32668
    19.20000    92.30715   349.58114     0.32670    87.69285    10.41886     0.32670
    19.30000    92.30632   349.58461     0.32672    87.69368    10.41539     0.32672
    19.40000    92.30550   349.58807     0.32674    87.69450    10.41193     0.32674
    19.50000    92.30467   349.59153     0.32676    87.69533    10.40847     0.32676
    19.60000    92.30384   349.59499     0.32678    87.69616    10.40501     0.32678
    19.70000    92.30302   349.59845     0.32680    87.69698    10.40155     0.32680
    19.80000    92.30219   349.60191     0.32682    87.69781    10.39809     0.32682
    19.90000    92.30136   349.60537     0.32684    87.69864    10.39463     0.32684
    20.00000    92.30054   349.60883     0.32686    87.69946    10.39117     0.32686
    20.10000    92.29971   349.61228     0.32688    87.70029    10.38772     0.32688
    20.20000    92.29888   349.61574     0.32690    87.70112    10.38426     0.32690
    20.30000    92.29806   349.61919     0.32692    87.70194    10.38081     0.32692
    20.40000    92.29723   349.62265     0.32694    87.70277    10.37735     0.32694
    20.50000    92.29641   349.62610     0.32696    87.70359    10.37390     0.32696
    20.60000    92.29559   349.62955     0.32698    87.70441    10.37045     0.32698
    20.70000    92.29476   349.63300     0.32700    87.70524    10.36700     0.32700
    20.80000    92.29394   349.63645     0.32702    87.70606    10.36355     0.32702
    20.90000    92.29311   349.63989     0.32704    87.70689    10.36011     0.32704
    21.00000    92.29229   349.64334     0.32706    87.70771    10.35666     0.32706
    21.10000    92.29147   349.64679     0.32708    87.70853    10.35321     0.32708
    21.20000    92.29064   349.65023     0.32710    87.70936    10.34977     0.32710
    21.30000    92.28982   349.65367     0.32712    87.71018    10.34633     0.32712
    21.40000    92.28900   349.65712     0.32714    87.71100    10.34288     0.32714
    21.50000    92.28818   349.66056     0.32717    87.71182    10.33944     0.32717
    21.60000    92.28736   349.66400     0.32719    87.71264    10.33600     0.32719
    21.70000    92.28653   349.66744     0.32721    87.71347    10.33256     0.32721
    21.80000    92.28571   349.67087     0.32723    87.71429    10.32913     0.32723
    21.90000    92.28489   349.67431     0.32725    87.71511    10.32569     0.32725
    22.00000    92.28407   349.67775     0.32727    87.71593    10.32225     0.32727
    22.10000    92.28325   349.68118     0.32729    87.71675    10.31882     0.32729
    22.20000    92.28243   349.68461     0.32731    87.71757    10.31539     0.32731
    22.30000    92.28161   349.68805     0.32733    87.71839    10.31195     0.32733
    22.40000    92.28079   349.69148     0.32735    87.71921    10.30852     0.32735
    22.50000    92.27997   349.69491     0.32737    87.72003    10.30509     0.32737
    22.60000    92.27915   349.69834     0.32739    87.72085    10.30166     0.32739
    22.70000    92.27833   349.70176     0.32741    87.72167    10.29824     0.32741
    22.80000    92.27751   349.70519     0.32743    87.72249    10.29481     0.32743
    22.90000    92.27670   349.70862     0.32745    87.72330    10.29138     0.32745
    23.00000    92.27588   349.71204     0.32747    87.72412    10.28796     0.32747
    23.10000    92.27506   349.71547     0.32749    87.72494    10.28453     0.32749
    23.20000    92.27424   349.71889     0.32751    87.72576    10.28111     0.32751
    23.30000    92.27343   349.72231     0.32753    87.72657    10.27769     0.32753
