 # applied field (T), theta (degree), phi (degree), abs for RE 3-4
     0.00000     0.24392   135.00000     4.68866     0.24392    45.00000     4.68866
     0.10000     0.19752    56.25172     4.68868     0.48935    21.68080     4.68864
     0.20000     0.42184    21.71384     4.68870     0.76095    14.39418     4.68861
     0.30000     0.73524    11.50449     4.68871     1.08435    10.57588     4.68857
     0.40000     1.01217     7.87141     4.68872     1.36434     8.75053     4.68854
     0.50000     1.29144     5.80669     4.68872     1.64537     7.54967     4.68850
     0.60000     1.57183     4.47947     4.68872     1.92706     6.70127     4.68845
     0.70000     1.89913     3.43068     4.68872     2.25567     5.98262     4.68839
     0.80000     2.18065     2.78312     4.68871     2.53828     5.51558     4.68834
     0.90000     2.46248     2.28498     4.68869     2.82122     5.14345     4.68828
     1.00000     2.74457     1.89031     4.68868     3.10447     4.84039     4.68822
     1.10000     3.07334     1.52327     4.68865     3.43469     4.55192     4.68815
     1.20000     3.35592     1.26644     4.68862     3.71859     4.34620     4.68808
     1.30000     3.63871     1.05030     4.68859     4.00280     4.17065     4.68800
     1.40000     3.96830     0.83831     4.68855     4.33415     3.99643     4.68791
     1.50000     4.25158     0.68320     4.68851     4.61905     3.86770     4.68783
     1.60000     4.53511     0.54805     4.68847     4.90429     3.75476     4.68774
     1.70000     4.86559     0.41119     4.68841     5.23689     3.63977     4.68764
     1.80000     5.14969     0.30822     4.68836     5.52291     3.55288     4.68754
     1.90000     5.43406     0.21646     4.68830     5.80930     3.47528     4.68744
     2.00000     5.76559     0.12154     4.68823     6.14330     3.39493     4.68732
     2.10000     6.05063     0.04874     4.68817     6.43057     3.33331     4.68722
     2.20000     6.38297   359.97259     4.68808     6.76563     3.26899     4.68709
     2.30000     6.66875   359.91362     4.68801     7.05384     3.21929     4.68697
     2.40000     7.00199   359.85138     4.68792     7.39003     3.16709     4.68684
     2.50000     7.28857   359.80278     4.68784     7.67926     3.12653     4.68671
     2.60000     7.62280   359.75110     4.68773     8.01668     3.08373     4.68656
     2.70000     7.91027   359.71047     4.68764     8.30698     3.05033     4.68643
     2.80000     8.24557   359.66700     4.68753     8.64571     3.01497     4.68628
     2.90000     8.58149   359.62719     4.68741     8.98517     2.98299     4.68611
     3.00000     8.87046   359.59561     4.68731     9.27729     2.95793     4.68597
     3.10000     9.20759   359.56154     4.68718     9.61819     2.93131     4.68580
     3.20000     9.54541   359.53009     4.68705     9.95989     2.90718     4.68562
     3.30000     9.83608   359.50496     4.68693    10.25399     2.88824     4.68547
     3.40000    10.17524   359.47767     4.68679    10.59725     2.86811     4.68528
     3.50000    10.51517   359.45229     4.68664    10.94139     2.84986     4.68509
     3.60000    10.85589   359.42864     4.68648    11.28642     2.83332     4.68490
     3.70000    11.19742   359.40655     4.68632    11.63237     2.81836     4.68470
     3.80000    11.53979   359.38588     4.68616    11.97927     2.80483     4.68450
     3.90000    11.88303   359.36650     4.68599    12.32712     2.79263     4.68429
     4.00000    12.22716   359.34829     4.68581    12.67597     2.78165     4.68408
     4.10000    12.62102   359.32880     4.68561    13.07533     2.77051     4.68383
     4.20000    12.96714   359.31276     4.68542    13.42636     2.76185     4.68361
     4.30000    13.31422   359.29759     4.68523    13.77845     2.75414     4.68339
     4.40000    13.71156   359.28126     4.68501    14.18159     2.74645     4.68313
     4.50000    14.06080   359.26773     4.68481    14.53600     2.74058     4.68289
     4.60000    14.46067   359.25310     4.68457    14.94186     2.73483     4.68262
     4.70000    14.81218   359.24093     4.68436    15.29869     2.73054     4.68238
     4.80000    15.21470   359.22771     4.68411    15.70736     2.72647     4.68210
     4.90000    15.61868   359.21514     4.68385    16.11757     2.72320     4.68181
     5.00000    16.02417   359.20316     4.68359    16.52934     2.72068     4.68152
     5.10000    16.43118   359.19172     4.68332    16.94271     2.71886     4.68123
     5.20000    16.83977   359.18076     4.68305    17.35769     2.71767     4.68093
     5.30000    17.24995   359.17023     4.68277    17.77432     2.71709     4.68063
     5.40000    17.71287   359.15887     4.68245    18.24452     2.71713     4.68029
     5.50000    18.12655   359.14913     4.68216    18.66471     2.71770     4.67998
     5.60000    18.59349   359.13856     4.68183    19.13898     2.71894     4.67963
     5.70000    19.06262   359.12834     4.68149    19.61543     2.72076     4.67927
     5.80000    19.53398   359.11843     4.68114    20.09411     2.72310     4.67891
     5.90000    20.00761   359.10878     4.68079    20.57502     2.72593     4.67855
     6.00000    20.53613   359.09834     4.68039    21.11158     2.72962     4.67814
     6.10000    21.06756   359.08815     4.67998    21.65096     2.73384     4.67773
     6.20000    21.60193   359.07815     4.67957    22.19318     2.73852     4.67732
     6.30000    22.13930   359.06831     4.67915    22.73826     2.74364     4.67691
     6.40000    22.73352   359.05763     4.67868    23.34078     2.74975     4.67645
     6.50000    23.33146   359.04707     4.67821    23.94680     2.75630     4.67600
     6.60000    23.98771   359.03562     4.67768    24.61154     2.76391     4.67550
     6.70000    24.64850   359.02421     4.67715    25.28046     2.77193     4.67500
     6.80000    25.36922   359.01184     4.67657    26.00951     2.78106     4.67446
     6.90000    90.66803   357.28993     4.66824    89.33197     2.71007     4.66824
     7.00000    90.66793   357.29030     4.66822    89.33207     2.70970     4.66822
     7.10000    90.66784   357.29067     4.66820    89.33216     2.70933     4.66820
     7.20000    90.66774   357.29103     4.66818    89.33226     2.70897     4.66818
     7.30000    90.66764   357.29140     4.66815    89.33236     2.70860     4.66815
     7.40000    90.66755   357.29177     4.66813    89.33245     2.70823     4.66813
     7.50000    90.66745   357.29214     4.66811    89.33255     2.70786     4.66811
     7.60000    90.66735   357.29251     4.66808    89.33265     2.70749     4.66808
     7.70000    90.66725   357.29287     4.66806    89.33275     2.70713     4.66806
     7.80000    90.66716   357.29324     4.66804    89.33284     2.70676     4.66804
     7.90000    90.66706   357.29361     4.66801    89.33294     2.70639     4.66801
     8.00000    90.66696   357.29397     4.66799    89.33304     2.70603     4.66799
     8.10000    90.66687   357.29434     4.66797    89.33313     2.70566     4.66797
     8.20000    90.66677   357.29471     4.66794    89.33323     2.70529     4.66794
     8.30000    90.66667   357.29507     4.66792    89.33333     2.70493     4.66792
     8.40000    90.66658   357.29544     4.66790    89.33342     2.70456     4.66790
     8.50000    90.66648   357.29581     4.66787    89.33352     2.70419     4.66787
     8.60000    90.66638   357.29617     4.66785    89.33362     2.70383     4.66785
     8.70000    90.66629   357.29654     4.66783    89.33371     2.70346     4.66783
     8.80000    90.66619   357.29691     4.66780    89.33381     2.70309     4.66780
     8.90000    90.66609   357.29727     4.66778    89.33391     2.70273     4.66778
     9.00000    90.66600   357.29764     4.66776    89.33400     2.70236     4.66776
     9.10000    90.66590   357.29800     4.66773    89.33410     2.70200     4.66773
     9.20000    90.66581   357.29837     4.66771    89.33419     2.70163     4.66771
     9.30000    90.66571   357.29873     4.66769    89.33429     2.70127     4.66769
     9.40000    90.66561   357.29910     4.66766    89.33439     2.70090     4.66766
     9.50000    90.66552   357.29946     4.66764    89.33448     2.70054     4.66764
     9.60000    90.66542   357.29983     4.66762    89.33458     2.70017     4.66762
     9.70000    90.66532   357.30019     4.66759    89.33468     2.69981     4.66759
     9.80000    90.66523   357.30056     4.66757    89.33477     2.69944     4.66757
     9.90000    90.66513   357.30092     4.66755    89.33487     2.69908     4.66755
    10.00000    90.66504   357.30129     4.66752    89.33496     2.69871     4.66752
    10.10000    90.66494   357.30165     4.66750    89.33506     2.69835     4.66750
    10.20000    90.66484   357.30201     4.66748    89.33516     2.69799     4.66748
    10.30000    90.66475   357.30238     4.66745    89.33525     2.69762     4.66745
    10.40000    90.66465   357.30274     4.66743    89.33535     2.69726     4.66743
    10.50000    90.66456   357.30311     4.66741    89.33544     2.69689     4.66741
    10.60000    90.66446   357.30347     4.66738    89.33554     2.69653     4.66738
    10.70000    90.66436   357.30383     4.66736    89.33564     2.69617     4.66736
    10.80000    90.66427   357.30420     4.66734    89.33573     2.69580     4.66734
    10.90000    90.66417   357.30456     4.66731    89.33583     2.69544     4.66731
    11.00000    90.66408   357.30492     4.66729    89.33592     2.69508     4.66729
    11.10000    90.66398   357.30528     4.66727    89.33602     2.69472     4.66727
    11.20000    90.66389   357.30565     4.66724    89.33611     2.69435     4.66724
    11.30000    90.66379   357.30601     4.66722    89.33621     2.69399     4.66722
    11.40000    90.66369   357.30637     4.66720    89.33631     2.69363     4.66720
    11.50000    90.66360   357.30674     4.66717    89.33640     2.69326     4.66717
    11.60000    90.66350   357.30710     4.66715    89.33650     2.69290     4.66715
    11.70000    90.66341   357.30746     4.66713    89.33659     2.69254     4.66713
    11.80000    90.66331   357.30782     4.66710    89.33669     2.69218     4.66710
    11.90000    90.66322   357.30818     4.66708    89.33678     2.69182     4.66708
    12.00000    90.66312   357.30855     4.66706    89.33688     2.69145     4.66706
    12.10000    90.66303   357.30891     4.66703    89.33697     2.69109     4.66703
    12.20000    90.66293   357.30927     4.66701    89.33707     2.69073     4.66701
    12.30000    90.66284   357.30963     4.66699    89.33716     2.69037     4.66699
    12.40000    90.66274   357.30999     4.66696    89.33726     2.69001     4.66696
    12.50000    90.66265   357.31035     4.66694    89.33735     2.68965     4.66694
    12.60000    90.66255   357.31071     4.66692    89.33745     2.68929     4.66692
    12.70000    90.66246   357.31107     4.66689    89.33754     2.68893     4.66689
    12.80000    90.66236   357.31143     4.66687    89.33764     2.68857     4.66687
    12.90000    90.66227   357.31180     4.66685    89.33773     2.68820     4.66685
    13.00000    90.66217   357.31216     4.66682    89.33783     2.68784     4.66682
    13.10000    90.66208   357.31252     4.66680    89.33792     2.68748     4.66680
    13.20000    90.66198   357.31288     4.66678    89.33802     2.68712     4.66678
    13.30000    90.66189   357.31324     4.66675    89.33811     2.68676     4.66675
    13.40000    90.66179   357.31360     4.66673    89.33821     2.68640     4.66673
    13.50000    90.66170   357.31396     4.66671    89.33830     2.68604     4.66671
    13.60000    90.66160   357.31432     4.66668    89.33840     2.68568     4.66668
    13.70000    90.66151   357.31468     4.66666    89.33849     2.68532     4.66666
    13.80000    90.66141   357.31504     4.66664    89.33859     2.68496     4.66664
    13.90000    90.66132   357.31539     4.66661    89.33868     2.68461     4.66661
    14.00000    90.66122   357.31575     4.66659    89.33878     2.68425     4.66659
    14.10000    90.66113   357.31611     4.66657    89.33887     2.68389     4.66657
    14.20000    90.66103   357.31647     4.66654    89.33897     2.68353     4.66654
    14.30000    90.66094   357.31683     4.66652    89.33906     2.68317     4.66652
    14.40000    90.66084   357.31719     4.66650    89.33916     2.68281     4.66650
    14.50000    90.66075   357.31755     4.66647    89.33925     2.68245     4.66647
    14.60000    90.66065   357.31791     4.66645    89.33935     2.68209     4.66645
    14.70000    90.66056   357.31826     4.66643    89.33944     2.68174     4.66643
    14.80000    90.66047   357.31862     4.66640    89.33953     2.68138     4.66640
    14.90000    90.66037   357.31898     4.66638    89.33963     2.68102     4.66638
    15.00000    90.66028   357.31934     4.66636    89.33972     2.68066     4.66636
    15.10000    90.66018   357.31970     4.66633    89.33982     2.68030     4.66633
    15.20000    90.66009   357.32005     4.66631    89.33991     2.67995     4.66631
    15.30000    90.65999   357.32041     4.66629    89.34001     2.67959     4.66629
    15.40000    90.65990   357.32077     4.66626    89.34010     2.67923     4.66626
    15.50000    90.65981   357.32113     4.66624    89.34019     2.67887     4.66624
    15.60000    90.65971   357.32148     4.66622    89.34029     2.67852     4.66622
    15.70000    90.65962   357.32184     4.66619    89.34038     2.67816     4.66619
    15.80000    90.65952   357.32220     4.66617    89.34048     2.67780     4.66617
    15.90000    90.65943   357.32255     4.66614    89.34057     2.67745     4.66614
    16.00000    90.65934   357.32291     4.66612    89.34066     2.67709     4.66612
    16.10000    90.65924   357.32327     4.66610    89.34076     2.67673     4.66610
    16.20000    90.65915   357.32362     4.66607    89.34085     2.67638     4.66607
    16.30000    90.65905   357.32398     4.66605    89.34095     2.67602     4.66605
    16.40000    90.65896   357.32434     4.66603    89.34104     2.67566     4.66603
    16.50000    90.65887   357.32469     4.66600    89.34113     2.67531     4.66600
    16.60000    90.65877   357.32505     4.66598    89.34123     2.67495     4.66598
    16.70000    90.65868   357.32540     4.66596    89.34132     2.67460     4.66596
    16.80000    90.65858   357.32576     4.66593    89.34142     2.67424     4.66593
    16.90000    90.65849   357.32612     4.66591    89.34151     2.67388     4.66591
    17.00000    90.65840   357.32647     4.66589    89.34160     2.67353     4.66589
    17.10000    90.65830   357.32683     4.66586    89.34170     2.67317     4.66586
    17.20000    90.65821   357.32718     4.66584    89.34179     2.67282     4.66584
    17.30000    90.65812   357.32754     4.66582    89.34188     2.67246     4.66582
    17.40000    90.65802   357.32789     4.66579    89.34198     2.67211     4.66579
    17.50000    90.65793   357.32825     4.66577    89.34207     2.67175     4.66577
    17.60000    90.65784   357.32860     4.66575    89.34216     2.67140     4.66575
    17.70000    90.65774   357.32895     4.66572    89.34226     2.67105     4.66572
    17.80000    90.65765   357.32931     4.66570    89.34235     2.67069     4.66570
    17.90000    90.65756   357.32966     4.66567    89.34244     2.67034     4.66567
    18.00000    90.65746   357.33002     4.66565    89.34254     2.66998     4.66565
    18.10000    90.65737   357.33037     4.66563    89.34263     2.66963     4.66563
    18.20000    90.65728   357.33073     4.66560    89.34272     2.66927     4.66560
    18.30000    90.65718   357.33108     4.66558    89.34282     2.66892     4.66558
    18.40000    90.65709   357.33143     4.66556    89.34291     2.66857     4.66556
    18.50000    90.65700   357.33179     4.66553    89.34300     2.66821     4.66553
    18.60000    90.65690   357.33214     4.66551    89.34310     2.66786     4.66551
    18.70000    90.65681   357.33249     4.66549    89.34319     2.66751     4.66549
    18.80000    90.65672   357.33285     4.66546    89.34328     2.66715     4.66546
    18.90000    90.65662   357.33320     4.66544    89.34338     2.66680     4.66544
    19.00000    90.65653   357.33355     4.66542    89.34347     2.66645     4.66542
    19.10000    90.65644   357.33390     4.66539    89.34356     2.66610     4.66539
    19.20000    90.65635   357.33426     4.66537    89.34365     2.66574     4.66537
    19.30000    90.65625   357.33461     4.66535    89.34375     2.66539     4.66535
    19.40000    90.65616   357.33496     4.66532    89.34384     2.66504     4.66532
    19.50000    90.65607   357.33531     4.66530    89.34393     2.66469     4.66530
    19.60000    90.65597   357.33567     4.66527    89.34403     2.66433     4.66527
    19.70000    90.65588   357.33602     4.66525    89.34412     2.66398     4.66525
    19.80000    90.65579   357.33637     4.66523    89.34421     2.66363     4.66523
    19.90000    90.65570   357.33672     4.66520    89.34430     2.66328     4.66520
    20.00000    90.65560   357.33707     4.66518    89.34440     2.66293     4.66518
    20.10000    90.65551   357.33743     4.66516    89.34449     2.66257     4.66516
    20.20000    90.65542   357.33778     4.66513    89.34458     2.66222     4.66513
    20.30000    90.65533   357.33813     4.66511    89.34467     2.66187     4.66511
    20.40000    90.65523   357.33848     4.66509    89.34477     2.66152     4.66509
    20.50000    90.65514   357.33883     4.66506    89.34486     2.66117     4.66506
    20.60000    90.65505   357.33918     4.66504    89.34495     2.66082     4.66504
    20.70000    90.65496   357.33953     4.66501    89.34504     2.66047     4.66501
    20.80000    90.65486   357.33988     4.66499    89.34514     2.66012     4.66499
    20.90000    90.65477   357.34023     4.66497    89.34523     2.65977     4.66497
    21.00000    90.65468   357.34058     4.66494    89.34532     2.65942     4.66494
    21.10000    90.65459   357.34093     4.66492    89.34541     2.65907     4.66492
    21.20000    90.65449   357.34128     4.66490    89.34551     2.65872     4.66490
    21.30000    90.65440   357.34163     4.66487    89.34560     2.65837     4.66487
    21.40000    90.65431   357.34198     4.66485    89.34569     2.65802     4.66485
    21.50000    90.65422   357.34233     4.66483    89.34578     2.65767     4.66483
    21.60000    90.65413   357.34268     4.66480    89.34587     2.65732     4.66480
    21.70000    90.65403   357.34303     4.66478    89.34597     2.65697     4.66478
    21.80000    90.65394   357.34338     4.66476    89.34606     2.65662     4.66476
    21.90000    90.65385   357.34373     4.66473    89.34615     2.65627     4.66473
    22.00000    90.65376   357.34408     4.66471    89.34624     2.65592     4.66471
    22.10000    90.65367   357.34443     4.66468    89.34633     2.65557     4.66468
    22.20000    90.65357   357.34478     4.66466    89.34643     2.65522     4.66466
    22.30000    90.65348   357.34513     4.66464    89.34652     2.65487     4.66464
    22.40000    90.65339   357.34548     4.66461    89.34661     2.65452     4.66461
    22.50000    90.65330   357.34583     4.66459    89.34670     2.65417     4.66459
    22.60000    90.65321   357.34617     4.66457    89.34679     2.65383     4.66457
    22.70000    90.65312   357.34652     4.66454    89.34688     2.65348     4.66454
    22.80000    90.65302   357.34687     4.66452    89.34698     2.65313     4.66452
    22.90000    90.65293   357.34722     4.66449    89.34707     2.65278     4.66449
    23.00000    90.65284   357.34757     4.66447    89.34716     2.65243     4.66447
    23.10000    90.65275   357.34791     4.66445    89.34725     2.65209     4.66445
    23.20000    90.65266   357.34826     4.66442    89.34734     2.65174     4.66442
    23.30000    90.65257   357.34861     4.66440    89.34743     2.65139     4.66440
