 # applied field (T), theta (degree), phi (degree), abs [muB/unitcell], abs [T]
       0.00000000       0.00000000       0.00000000      34.70682909       1.16817407
       0.10000000       3.38117937      45.00000000      34.70661169       1.16816675
       0.20000000       6.93446784      45.00000000      34.70593048       1.16814382
       0.30000000      90.00000000      45.00000000      34.72000415       1.16861752
       0.40000000      90.00000000      45.00000000      34.72023437       1.16862527
       0.50000000      90.00000000      45.00000000      34.72046458       1.16863302
       0.60000000      90.00000000      45.00000000      34.72069475       1.16864076
       0.70000000      90.00000000      45.00000000      34.72092491       1.16864851
       0.80000000      90.00000000      45.00000000      34.72115504       1.16865626
       0.90000000      90.00000000      45.00000000      34.72138515       1.16866400
       1.00000000      90.00000000      45.00000000      34.72161524       1.16867175
       1.10000000      90.00000000      45.00000000      34.72184530       1.16867949
       1.20000000      90.00000000      45.00000000      34.72207535       1.16868723
       1.30000000      90.00000000      45.00000000      34.72230536       1.16869497
       1.40000000      90.00000000      45.00000000      34.72253536       1.16870272
       1.50000000      90.00000000      45.00000000      34.72276533       1.16871046
       1.60000000      90.00000000      45.00000000      34.72299528       1.16871820
       1.70000000      90.00000000      45.00000000      34.72322521       1.16872594
       1.80000000      90.00000000      45.00000000      34.72345512       1.16873367
       1.90000000      90.00000000      45.00000000      34.72368500       1.16874141
       2.00000000      90.00000000      45.00000000      34.72391486       1.16874915
       2.10000000      90.00000000      45.00000000      34.72414470       1.16875688
       2.20000000      90.00000000      45.00000000      34.72437451       1.16876462
       2.30000000      90.00000000      45.00000000      34.72460430       1.16877235
       2.40000000      90.00000000      45.00000000      34.72483407       1.16878009
       2.50000000      90.00000000      45.00000000      34.72506382       1.16878782
       2.60000000      90.00000000      45.00000000      34.72529354       1.16879555
       2.70000000      90.00000000      45.00000000      34.72552324       1.16880328
       2.80000000      90.00000000      45.00000000      34.72575292       1.16881101
       2.90000000      90.00000000      45.00000000      34.72598257       1.16881874
       3.00000000      90.00000000      45.00000000      34.72621221       1.16882647
       3.10000000      90.00000000      45.00000000      34.72644182       1.16883420
       3.20000000      90.00000000      45.00000000      34.72667140       1.16884193
       3.30000000      90.00000000      45.00000000      34.72690097       1.16884966
       3.40000000      90.00000000      45.00000000      34.72713051       1.16885738
       3.50000000      90.00000000      45.00000000      34.72736003       1.16886511
       3.60000000      90.00000000      45.00000000      34.72758953       1.16887283
       3.70000000      90.00000000      45.00000000      34.72781900       1.16888055
       3.80000000      90.00000000      45.00000000      34.72804845       1.16888828
       3.90000000      90.00000000      45.00000000      34.72827788       1.16889600
       4.00000000      90.00000000      45.00000000      34.72850729       1.16890372
       4.10000000      90.00000000      45.00000000      34.72873668       1.16891144
       4.20000000      90.00000000      45.00000000      34.72896604       1.16891916
       4.30000000      90.00000000      45.00000000      34.72919538       1.16892688
       4.40000000      90.00000000      45.00000000      34.72942469       1.16893460
       4.50000000      90.00000000      45.00000000      34.72965399       1.16894232
       4.60000000      90.00000000      45.00000000      34.72988326       1.16895003
       4.70000000      90.00000000      45.00000000      34.73011251       1.16895775
       4.80000000      90.00000000      45.00000000      34.73034173       1.16896547
       4.90000000      90.00000000      45.00000000      34.73057094       1.16897318
       5.00000000      90.00000000      45.00000000      34.73080012       1.16898089
       5.10000000      90.00000000      45.00000000      34.73102928       1.16898861
       5.20000000      90.00000000      45.00000000      34.73125842       1.16899632
       5.30000000      90.00000000      45.00000000      34.73148753       1.16900403
       5.40000000      90.00000000      45.00000000      34.73171662       1.16901174
       5.50000000      90.00000000      45.00000000      34.73194569       1.16901945
       5.60000000      90.00000000      45.00000000      34.73217474       1.16902716
       5.70000000      90.00000000      45.00000000      34.73240376       1.16903487
       5.80000000      90.00000000      45.00000000      34.73263276       1.16904258
       5.90000000      90.00000000      45.00000000      34.73286174       1.16905029
       6.00000000      90.00000000      45.00000000      34.73309070       1.16905799
       6.10000000      90.00000000      45.00000000      34.73331964       1.16906570
       6.20000000      90.00000000      45.00000000      34.73354855       1.16907340
       6.30000000      90.00000000      45.00000000      34.73377744       1.16908111
       6.40000000      90.00000000      45.00000000      34.73400631       1.16908881
       6.50000000      90.00000000      45.00000000      34.73423515       1.16909651
       6.60000000      90.00000000      45.00000000      34.73446398       1.16910421
       6.70000000      90.00000000      45.00000000      34.73469278       1.16911191
       6.80000000      90.00000000      45.00000000      34.73492155       1.16911961
       6.90000000      90.00000000      45.00000000      34.73515031       1.16912731
       7.00000000      90.00000000      45.00000000      34.73537904       1.16913501
       7.10000000      90.00000000      45.00000000      34.73560776       1.16914271
       7.20000000      90.00000000      45.00000000      34.73583645       1.16915041
       7.30000000      90.00000000      45.00000000      34.73606511       1.16915811
       7.40000000      90.00000000      45.00000000      34.73629376       1.16916580
       7.50000000      90.00000000      45.00000000      34.73652238       1.16917350
       7.60000000      90.00000000      45.00000000      34.73675098       1.16918119
       7.70000000      90.00000000      45.00000000      34.73697956       1.16918888
       7.80000000      90.00000000      45.00000000      34.73720811       1.16919658
       7.90000000      90.00000000      45.00000000      34.73743665       1.16920427
       8.00000000      90.00000000      45.00000000      34.73766516       1.16921196
       8.10000000      90.00000000      45.00000000      34.73789365       1.16921965
       8.20000000      90.00000000      45.00000000      34.73812211       1.16922734
       8.30000000      90.00000000      45.00000000      34.73835056       1.16923503
       8.40000000      90.00000000      45.00000000      34.73857898       1.16924272
       8.50000000      90.00000000      45.00000000      34.73880738       1.16925041
       8.60000000      90.00000000      45.00000000      34.73903576       1.16925809
       8.70000000      90.00000000      45.00000000      34.73926411       1.16926578
       8.80000000      90.00000000      45.00000000      34.73949245       1.16927346
       8.90000000      90.00000000      45.00000000      34.73972076       1.16928115
       9.00000000      90.00000000      45.00000000      34.73994905       1.16928883
       9.10000000      90.00000000      45.00000000      34.74017732       1.16929652
       9.20000000      90.00000000      45.00000000      34.74040556       1.16930420
       9.30000000      90.00000000      45.00000000      34.74063378       1.16931188
       9.40000000      90.00000000      45.00000000      34.74086199       1.16931956
       9.50000000      90.00000000      45.00000000      34.74109016       1.16932724
       9.60000000      90.00000000      45.00000000      34.74131832       1.16933492
       9.70000000      90.00000000      45.00000000      34.74154646       1.16934260
       9.80000000      90.00000000      45.00000000      34.74177457       1.16935028
       9.90000000      90.00000000      45.00000000      34.74200266       1.16935795
      10.00000000      90.00000000      45.00000000      34.74223073       1.16936563
      10.10000000      90.00000000      45.00000000      34.74245877       1.16937331
      10.20000000      90.00000000      45.00000000      34.74268680       1.16938098
      10.30000000      90.00000000      45.00000000      34.74291480       1.16938865
      10.40000000      90.00000000      45.00000000      34.74314278       1.16939633
      10.50000000      90.00000000      45.00000000      34.74337074       1.16940400
      10.60000000      90.00000000      45.00000000      34.74359868       1.16941167
      10.70000000      90.00000000      45.00000000      34.74382659       1.16941934
      10.80000000      90.00000000      45.00000000      34.74405448       1.16942701
      10.90000000      90.00000000      45.00000000      34.74428235       1.16943468
      11.00000000      90.00000000      45.00000000      34.74451020       1.16944235
      11.10000000      90.00000000      45.00000000      34.74473803       1.16945002
      11.20000000      90.00000000      45.00000000      34.74496583       1.16945769
      11.30000000      90.00000000      45.00000000      34.74519361       1.16946536
      11.40000000      90.00000000      45.00000000      34.74542137       1.16947302
      11.50000000      90.00000000      45.00000000      34.74564911       1.16948069
      11.60000000      90.00000000      45.00000000      34.74587683       1.16948835
      11.70000000      90.00000000      45.00000000      34.74610452       1.16949602
      11.80000000      90.00000000      45.00000000      34.74633220       1.16950368
      11.90000000      90.00000000      45.00000000      34.74655985       1.16951134
      12.00000000      90.00000000      45.00000000      34.74678748       1.16951900
      12.10000000      90.00000000      45.00000000      34.74701508       1.16952666
      12.20000000      90.00000000      45.00000000      34.74724267       1.16953432
      12.30000000      90.00000000      45.00000000      34.74747023       1.16954198
      12.40000000      90.00000000      45.00000000      34.74769778       1.16954964
      12.50000000      90.00000000      45.00000000      34.74792530       1.16955730
      12.60000000      90.00000000      45.00000000      34.74815279       1.16956496
      12.70000000      90.00000000      45.00000000      34.74838027       1.16957261
      12.80000000      90.00000000      45.00000000      34.74860772       1.16958027
      12.90000000      90.00000000      45.00000000      34.74883516       1.16958792
      13.00000000      90.00000000      45.00000000      34.74906257       1.16959558
      13.10000000      90.00000000      45.00000000      34.74928996       1.16960323
      13.20000000      90.00000000      45.00000000      34.74951732       1.16961088
      13.30000000      90.00000000      45.00000000      34.74974467       1.16961854
      13.40000000      90.00000000      45.00000000      34.74997199       1.16962619
      13.50000000      90.00000000      45.00000000      34.75019929       1.16963384
      13.60000000      90.00000000      45.00000000      34.75042657       1.16964149
      13.70000000      90.00000000      45.00000000      34.75065383       1.16964914
      13.80000000      90.00000000      45.00000000      34.75088107       1.16965679
      13.90000000      90.00000000      45.00000000      34.75110828       1.16966443
      14.00000000      90.00000000      45.00000000      34.75133548       1.16967208
      14.10000000      90.00000000      45.00000000      34.75156265       1.16967973
      14.20000000      90.00000000      45.00000000      34.75178980       1.16968737
      14.30000000      90.00000000      45.00000000      34.75201692       1.16969502
      14.40000000      90.00000000      45.00000000      34.75224403       1.16970266
      14.50000000      90.00000000      45.00000000      34.75247112       1.16971030
      14.60000000      90.00000000      45.00000000      34.75269818       1.16971795
      14.70000000      90.00000000      45.00000000      34.75292522       1.16972559
      14.80000000      90.00000000      45.00000000      34.75315224       1.16973323
      14.90000000      90.00000000      45.00000000      34.75337924       1.16974087
      15.00000000      90.00000000      45.00000000      34.75360621       1.16974851
      15.10000000      90.00000000      45.00000000      34.75383317       1.16975615
      15.20000000      90.00000000      45.00000000      34.75406010       1.16976379
      15.30000000      90.00000000      45.00000000      34.75428701       1.16977142
      15.40000000      90.00000000      45.00000000      34.75451390       1.16977906
      15.50000000      90.00000000      45.00000000      34.75474077       1.16978670
      15.60000000      90.00000000      45.00000000      34.75496762       1.16979433
      15.70000000      90.00000000      45.00000000      34.75519444       1.16980197
      15.80000000      90.00000000      45.00000000      34.75542125       1.16980960
      15.90000000      90.00000000      45.00000000      34.75564803       1.16981723
      16.00000000      90.00000000      45.00000000      34.75587479       1.16982487
      16.10000000      90.00000000      45.00000000      34.75610153       1.16983250
      16.20000000      90.00000000      45.00000000      34.75632824       1.16984013
      16.30000000      90.00000000      45.00000000      34.75655494       1.16984776
      16.40000000      90.00000000      45.00000000      34.75678162       1.16985539
      16.50000000      90.00000000      45.00000000      34.75700827       1.16986302
      16.60000000      90.00000000      45.00000000      34.75723490       1.16987064
      16.70000000      90.00000000      45.00000000      34.75746151       1.16987827
      16.80000000      90.00000000      45.00000000      34.75768810       1.16988590
      16.90000000      90.00000000      45.00000000      34.75791466       1.16989352
      17.00000000      90.00000000      45.00000000      34.75814121       1.16990115
      17.10000000      90.00000000      45.00000000      34.75836773       1.16990877
      17.20000000      90.00000000      45.00000000      34.75859424       1.16991640
      17.30000000      90.00000000      45.00000000      34.75882072       1.16992402
      17.40000000      90.00000000      45.00000000      34.75904718       1.16993164
      17.50000000      90.00000000      45.00000000      34.75927361       1.16993926
      17.60000000      90.00000000      45.00000000      34.75950003       1.16994689
      17.70000000      90.00000000      45.00000000      34.75972643       1.16995451
      17.80000000      90.00000000      45.00000000      34.75995280       1.16996212
      17.90000000      90.00000000      45.00000000      34.76017915       1.16996974
      18.00000000      90.00000000      45.00000000      34.76040548       1.16997736
      18.10000000      90.00000000      45.00000000      34.76063179       1.16998498
      18.20000000      90.00000000      45.00000000      34.76085808       1.16999260
      18.30000000      90.00000000      45.00000000      34.76108435       1.17000021
      18.40000000      90.00000000      45.00000000      34.76131059       1.17000783
      18.50000000      90.00000000      45.00000000      34.76153682       1.17001544
      18.60000000      90.00000000      45.00000000      34.76176302       1.17002305
      18.70000000      90.00000000      45.00000000      34.76198920       1.17003067
      18.80000000      90.00000000      45.00000000      34.76221536       1.17003828
      18.90000000      90.00000000      45.00000000      34.76244150       1.17004589
      19.00000000      90.00000000      45.00000000      34.76266762       1.17005350
      19.10000000      90.00000000      45.00000000      34.76289372       1.17006111
      19.20000000      90.00000000      45.00000000      34.76311979       1.17006872
      19.30000000      90.00000000      45.00000000      34.76334585       1.17007633
      19.40000000      90.00000000      45.00000000      34.76357188       1.17008394
      19.50000000      90.00000000      45.00000000      34.76379789       1.17009154
      19.60000000      90.00000000      45.00000000      34.76402388       1.17009915
      19.70000000      90.00000000      45.00000000      34.76424985       1.17010676
      19.80000000      90.00000000      45.00000000      34.76447580       1.17011436
      19.90000000      90.00000000      45.00000000      34.76470172       1.17012197
      20.00000000      90.00000000      45.00000000      34.76492763       1.17012957
      20.10000000      90.00000000      45.00000000      34.76515351       1.17013717
      20.20000000      90.00000000      45.00000000      34.76537938       1.17014477
      20.30000000      90.00000000      45.00000000      34.76560522       1.17015238
      20.40000000      90.00000000      45.00000000      34.76583104       1.17015998
      20.50000000      90.00000000      45.00000000      34.76605684       1.17016758
      20.60000000      90.00000000      45.00000000      34.76628261       1.17017518
      20.70000000      90.00000000      45.00000000      34.76650837       1.17018277
      20.80000000      90.00000000      45.00000000      34.76673411       1.17019037
      20.90000000      90.00000000      45.00000000      34.76695982       1.17019797
      21.00000000      90.00000000      45.00000000      34.76718552       1.17020557
      21.10000000      90.00000000      45.00000000      34.76741119       1.17021316
      21.20000000      90.00000000      45.00000000      34.76763684       1.17022076
      21.30000000      90.00000000      45.00000000      34.76786247       1.17022835
      21.40000000      90.00000000      45.00000000      34.76808808       1.17023594
      21.50000000      90.00000000      45.00000000      34.76831367       1.17024354
      21.60000000      90.00000000      45.00000000      34.76853923       1.17025113
      21.70000000      90.00000000      45.00000000      34.76876478       1.17025872
      21.80000000      90.00000000      45.00000000      34.76899030       1.17026631
      21.90000000      90.00000000      45.00000000      34.76921581       1.17027390
      22.00000000      90.00000000      45.00000000      34.76944129       1.17028149
      22.10000000      90.00000000      45.00000000      34.76966675       1.17028908
      22.20000000      90.00000000      45.00000000      34.76989219       1.17029667
      22.30000000      90.00000000      45.00000000      34.77011761       1.17030426
      22.40000000      90.00000000      45.00000000      34.77034301       1.17031184
      22.50000000      90.00000000      45.00000000      34.77056839       1.17031943
      22.60000000      90.00000000      45.00000000      34.77079374       1.17032701
      22.70000000      90.00000000      45.00000000      34.77101908       1.17033460
      22.80000000      90.00000000      45.00000000      34.77124439       1.17034218
      22.90000000      90.00000000      45.00000000      34.77146969       1.17034976
      23.00000000      90.00000000      45.00000000      34.77169496       1.17035735
