 # applied field (T), theta (degree), phi (degree), abs [muB/unitcell], abs [T]
       0.00000000       0.00000000       0.00000000      40.80535974       1.37344046
       0.10000000       0.74277733     360.00000000      40.80540262       1.37344190
       0.20000000       1.48556037     360.00000000      40.80540006       1.37344181
       0.30000000       2.22835271     360.00000000      40.80535225       1.37344020
       0.40000000       2.97115788     360.00000000      40.80525943       1.37343708
       0.50000000       3.71397938     360.00000000      40.80512194       1.37343245
       0.60000000       4.45682066     360.00000000      40.80494022       1.37342633
       0.70000000       5.19968510     360.00000000      40.80471476       1.37341875
       0.80000000       5.94257603     360.00000000      40.80444615       1.37340971
       0.90000000       6.68549670     360.00000000      40.80413507       1.37339923
       1.00000000       7.42845030       0.00000000      40.80378227       1.37338736
       1.10000000       8.17143993     360.00000000      40.80338859       1.37337411
       1.20000000       8.97157431     360.00000000      40.80291737       1.37335825
       1.30000000       9.71464840     360.00000000      40.80244155       1.37334223
       1.40000000      10.51488065     360.00000000      40.80188385       1.37332346
       1.50000000      11.25805143     360.00000000      40.80133053       1.37330484
       1.60000000      12.05839427     360.00000000      40.80069166       1.37328334
       1.70000000      12.85879920     360.00000000      40.80001291       1.37326049
       1.80000000      13.65926925     360.00000000      40.79929597       1.37323636
       1.90000000      14.45980728     360.00000000      40.79854262       1.37321100
       2.00000000      15.31755779     360.00000000      40.79769313       1.37318241
       2.10000000      16.11824525     360.00000000      40.79687012       1.37315471
       2.20000000      16.97616189     360.00000000      40.79595006       1.37312374
       2.30000000      17.83416867     360.00000000      40.79499707       1.37309166
       2.40000000      18.69226809     360.00000000      40.79401374       1.37305857
       2.50000000      19.55046247     360.00000000      40.79300271       1.37302454
       2.60000000      20.46593377     360.00000000      40.79189185       1.37298715
       2.70000000      21.38151814     360.00000000      40.79075547       1.37294890
       2.80000000      22.29721754     360.00000000      40.78959694       1.37290991
       2.90000000      23.27023642     360.00000000      40.78834030       1.37286761
       3.00000000      24.24338914     360.00000000      40.78706616       1.37282472
       3.10000000      25.21667696     360.00000000      40.78577861       1.37278139
       3.20000000      26.24732873     360.00000000      40.78439971       1.37273498
       3.30000000      27.27813405     360.00000000      40.78301471       1.37268836
       3.40000000      28.36633921     360.00000000      40.78154570       1.37263891
       3.50000000      29.51197176     360.00000000      40.77999767       1.37258681
       3.60000000      30.65779370     360.00000000      40.77845910       1.37253502
       3.70000000      31.86107909     360.00000000      40.77685459       1.37248102
       3.80000000      33.12185540     360.00000000      40.77519287       1.37242509
       3.90000000      34.44014979     360.00000000      40.77348420       1.37236758
       4.00000000      35.87329719     360.00000000      40.77166362       1.37230630
       4.10000000      37.36403635     360.00000000      40.76982558       1.37224443
       4.20000000      38.91238990     360.00000000      40.76798550       1.37218250
       4.30000000      40.63306428     360.00000000      40.76602292       1.37211644
       4.40000000      42.46878870     360.00000000      40.76404100       1.37204973
       4.50000000      44.53434078     360.00000000      40.76195050       1.37197937
       4.60000000      46.88720177     360.00000000      40.75975743       1.37190556
       4.70000000      49.64226860     360.00000000      40.75744574       1.37182775
       4.80000000      53.08669260     360.00000000      40.75492723       1.37174298
       4.90000000      57.85218749     360.00000000      40.75205390       1.37164627
       5.00000000      68.53199340     360.00000000      40.74741981       1.37149029
       5.10000000      90.00000000     360.00000000      40.74008074       1.37124327
       5.20000000      90.00000000     360.00000000      40.74028908       1.37125028
       5.30000000      90.00000000     360.00000000      40.74049739       1.37125730
       5.40000000      90.00000000     360.00000000      40.74070567       1.37126431
       5.50000000      90.00000000     360.00000000      40.74091392       1.37127132
       5.60000000      90.00000000     360.00000000      40.74112215       1.37127832
       5.70000000      90.00000000     360.00000000      40.74133034       1.37128533
       5.80000000      90.00000000     360.00000000      40.74153851       1.37129234
       5.90000000      90.00000000     360.00000000      40.74174666       1.37129934
       6.00000000      90.00000000     360.00000000      40.74195477       1.37130635
       6.10000000      90.00000000     360.00000000      40.74216286       1.37131335
       6.20000000      90.00000000     360.00000000      40.74237092       1.37132036
       6.30000000      90.00000000     360.00000000      40.74257895       1.37132736
       6.40000000      90.00000000     360.00000000      40.74278695       1.37133436
       6.50000000      90.00000000     360.00000000      40.74299493       1.37134136
       6.60000000      90.00000000     360.00000000      40.74320288       1.37134836
       6.70000000      90.00000000     360.00000000      40.74341080       1.37135536
       6.80000000      90.00000000     360.00000000      40.74361870       1.37136235
       6.90000000      90.00000000     360.00000000      40.74382657       1.37136935
       7.00000000      90.00000000     360.00000000      40.74403440       1.37137635
       7.10000000      90.00000000     360.00000000      40.74424222       1.37138334
       7.20000000      90.00000000     360.00000000      40.74445000       1.37139033
       7.30000000      90.00000000     360.00000000      40.74465776       1.37139733
       7.40000000      90.00000000     360.00000000      40.74486549       1.37140432
       7.50000000      90.00000000     360.00000000      40.74507319       1.37141131
       7.60000000      90.00000000     360.00000000      40.74528087       1.37141830
       7.70000000      90.00000000     360.00000000      40.74548851       1.37142529
       7.80000000      90.00000000     360.00000000      40.74569613       1.37143228
       7.90000000      90.00000000     360.00000000      40.74590373       1.37143926
       8.00000000      90.00000000     360.00000000      40.74611129       1.37144625
       8.10000000      90.00000000     360.00000000      40.74631883       1.37145324
       8.20000000      90.00000000     360.00000000      40.74652634       1.37146022
       8.30000000      90.00000000     360.00000000      40.74673383       1.37146720
       8.40000000      90.00000000     360.00000000      40.74694128       1.37147419
       8.50000000      90.00000000     360.00000000      40.74714871       1.37148117
       8.60000000      90.00000000     360.00000000      40.74735611       1.37148815
       8.70000000      90.00000000     360.00000000      40.74756349       1.37149513
       8.80000000      90.00000000     360.00000000      40.74777083       1.37150211
       8.90000000      90.00000000     360.00000000      40.74797815       1.37150909
       9.00000000      90.00000000     360.00000000      40.74818544       1.37151606
       9.10000000      90.00000000     360.00000000      40.74839271       1.37152304
       9.20000000      90.00000000     360.00000000      40.74859995       1.37153001
       9.30000000      90.00000000     360.00000000      40.74880716       1.37153699
       9.40000000      90.00000000     360.00000000      40.74901434       1.37154396
       9.50000000      90.00000000     360.00000000      40.74922150       1.37155094
       9.60000000      90.00000000     360.00000000      40.74942863       1.37155791
       9.70000000      90.00000000     360.00000000      40.74963573       1.37156488
       9.80000000      90.00000000     360.00000000      40.74984280       1.37157185
       9.90000000      90.00000000     360.00000000      40.75004985       1.37157882
      10.00000000      90.00000000     360.00000000      40.75025687       1.37158578
      10.10000000      90.00000000     360.00000000      40.75046386       1.37159275
      10.20000000      90.00000000     360.00000000      40.75067083       1.37159972
      10.30000000      90.00000000     360.00000000      40.75087777       1.37160668
      10.40000000      90.00000000     360.00000000      40.75108468       1.37161365
      10.50000000      90.00000000     360.00000000      40.75129156       1.37162061
      10.60000000      90.00000000     360.00000000      40.75149842       1.37162757
      10.70000000      90.00000000     360.00000000      40.75170525       1.37163453
      10.80000000      90.00000000     360.00000000      40.75191206       1.37164149
      10.90000000      90.00000000     360.00000000      40.75211883       1.37164845
      11.00000000      90.00000000     360.00000000      40.75232558       1.37165541
      11.10000000      90.00000000     360.00000000      40.75253230       1.37166237
      11.20000000      90.00000000     360.00000000      40.75273900       1.37166933
      11.30000000      90.00000000     360.00000000      40.75294567       1.37167628
      11.40000000      90.00000000     360.00000000      40.75315231       1.37168324
      11.50000000      90.00000000     360.00000000      40.75335892       1.37169019
      11.60000000      90.00000000     360.00000000      40.75356551       1.37169715
      11.70000000      90.00000000     360.00000000      40.75377207       1.37170410
      11.80000000      90.00000000     360.00000000      40.75397860       1.37171105
      11.90000000      90.00000000     360.00000000      40.75418511       1.37171800
      12.00000000      90.00000000     360.00000000      40.75439159       1.37172495
      12.10000000      90.00000000     360.00000000      40.75459804       1.37173190
      12.20000000      90.00000000     360.00000000      40.75480446       1.37173885
      12.30000000      90.00000000     360.00000000      40.75501086       1.37174580
      12.40000000      90.00000000     360.00000000      40.75521723       1.37175274
      12.50000000      90.00000000     360.00000000      40.75542358       1.37175969
      12.60000000      90.00000000     360.00000000      40.75562989       1.37176663
      12.70000000      90.00000000     360.00000000      40.75583619       1.37177357
      12.80000000      90.00000000     360.00000000      40.75604245       1.37178052
      12.90000000      90.00000000     360.00000000      40.75624869       1.37178746
      13.00000000      90.00000000     360.00000000      40.75645490       1.37179440
      13.10000000      90.00000000     360.00000000      40.75666108       1.37180134
      13.20000000      90.00000000     360.00000000      40.75686724       1.37180828
      13.30000000      90.00000000     360.00000000      40.75707336       1.37181522
      13.40000000      90.00000000     360.00000000      40.75727947       1.37182215
      13.50000000      90.00000000     360.00000000      40.75748554       1.37182909
      13.60000000      90.00000000     360.00000000      40.75769159       1.37183602
      13.70000000      90.00000000     360.00000000      40.75789761       1.37184296
      13.80000000      90.00000000     360.00000000      40.75810361       1.37184989
      13.90000000      90.00000000     360.00000000      40.75830958       1.37185682
      14.00000000      90.00000000     360.00000000      40.75851552       1.37186376
      14.10000000      90.00000000     360.00000000      40.75872144       1.37187069
      14.20000000      90.00000000     360.00000000      40.75892732       1.37187762
      14.30000000      90.00000000     360.00000000      40.75913319       1.37188455
      14.40000000      90.00000000     360.00000000      40.75933902       1.37189147
      14.50000000      90.00000000     360.00000000      40.75954483       1.37189840
      14.60000000      90.00000000     360.00000000      40.75975061       1.37190533
      14.70000000      90.00000000     360.00000000      40.75995637       1.37191225
      14.80000000      90.00000000     360.00000000      40.76016209       1.37191918
      14.90000000      90.00000000     360.00000000      40.76036780       1.37192610
      15.00000000      90.00000000     360.00000000      40.76057347       1.37193302
      15.10000000      90.00000000     360.00000000      40.76077912       1.37193995
      15.20000000      90.00000000     360.00000000      40.76098474       1.37194687
      15.30000000      90.00000000     360.00000000      40.76119034       1.37195379
      15.40000000      90.00000000     360.00000000      40.76139591       1.37196071
      15.50000000      90.00000000     360.00000000      40.76160145       1.37196762
      15.60000000      90.00000000     360.00000000      40.76180696       1.37197454
      15.70000000      90.00000000     360.00000000      40.76201245       1.37198146
      15.80000000      90.00000000     360.00000000      40.76221791       1.37198837
      15.90000000      90.00000000     360.00000000      40.76242335       1.37199529
      16.00000000      90.00000000     360.00000000      40.76262876       1.37200220
      16.10000000      90.00000000     360.00000000      40.76283414       1.37200911
      16.20000000      90.00000000     360.00000000      40.76303950       1.37201603
      16.30000000      90.00000000     360.00000000      40.76324483       1.37202294
      16.40000000      90.00000000     360.00000000      40.76345013       1.37202985
      16.50000000      90.00000000     360.00000000      40.76365541       1.37203676
      16.60000000      90.00000000     360.00000000      40.76386066       1.37204366
      16.70000000      90.00000000     360.00000000      40.76406588       1.37205057
      16.80000000      90.00000000     360.00000000      40.76427108       1.37205748
      16.90000000      90.00000000     360.00000000      40.76447625       1.37206438
      17.00000000      90.00000000     360.00000000      40.76468139       1.37207129
      17.10000000      90.00000000     360.00000000      40.76488651       1.37207819
      17.20000000      90.00000000     360.00000000      40.76509160       1.37208510
      17.30000000      90.00000000     360.00000000      40.76529666       1.37209200
      17.40000000      90.00000000     360.00000000      40.76550170       1.37209890
      17.50000000      90.00000000     360.00000000      40.76570671       1.37210580
      17.60000000      90.00000000     360.00000000      40.76591170       1.37211270
      17.70000000      90.00000000     360.00000000      40.76611666       1.37211960
      17.80000000      90.00000000     360.00000000      40.76632159       1.37212650
      17.90000000      90.00000000     360.00000000      40.76652650       1.37213339
      18.00000000      90.00000000     360.00000000      40.76673138       1.37214029
      18.10000000      90.00000000     360.00000000      40.76693623       1.37214718
      18.20000000      90.00000000     360.00000000      40.76714106       1.37215408
      18.30000000      90.00000000     360.00000000      40.76734586       1.37216097
      18.40000000      90.00000000     360.00000000      40.76755064       1.37216786
      18.50000000      90.00000000     360.00000000      40.76775539       1.37217476
      18.60000000      90.00000000     360.00000000      40.76796011       1.37218165
      18.70000000      90.00000000     360.00000000      40.76816480       1.37218854
      18.80000000      90.00000000     360.00000000      40.76836947       1.37219542
      18.90000000      90.00000000     360.00000000      40.76857412       1.37220231
      19.00000000      90.00000000     360.00000000      40.76877873       1.37220920
      19.10000000      90.00000000     360.00000000      40.76898333       1.37221609
      19.20000000      90.00000000     360.00000000      40.76918789       1.37222297
      19.30000000      90.00000000     360.00000000      40.76939243       1.37222986
      19.40000000      90.00000000     360.00000000      40.76959694       1.37223674
      19.50000000      90.00000000     360.00000000      40.76980143       1.37224362
      19.60000000      90.00000000     360.00000000      40.77000589       1.37225050
      19.70000000      90.00000000     360.00000000      40.77021032       1.37225738
      19.80000000      90.00000000     360.00000000      40.77041473       1.37226426
      19.90000000      90.00000000     360.00000000      40.77061911       1.37227114
      20.00000000      90.00000000     360.00000000      40.77082347       1.37227802
      20.10000000      90.00000000     360.00000000      40.77102780       1.37228490
      20.20000000      90.00000000     360.00000000      40.77123210       1.37229178
      20.30000000      90.00000000     360.00000000      40.77143638       1.37229865
      20.40000000      90.00000000     360.00000000      40.77164063       1.37230553
      20.50000000      90.00000000     360.00000000      40.77184485       1.37231240
      20.60000000      90.00000000     360.00000000      40.77204905       1.37231927
      20.70000000      90.00000000     360.00000000      40.77225322       1.37232614
      20.80000000      90.00000000     360.00000000      40.77245737       1.37233302
      20.90000000      90.00000000     360.00000000      40.77266149       1.37233989
      21.00000000      90.00000000     360.00000000      40.77286559       1.37234676
      21.10000000      90.00000000     360.00000000      40.77306965       1.37235362
      21.20000000      90.00000000     360.00000000      40.77327370       1.37236049
      21.30000000      90.00000000     360.00000000      40.77347771       1.37236736
      21.40000000      90.00000000     360.00000000      40.77368170       1.37237423
      21.50000000      90.00000000     360.00000000      40.77388567       1.37238109
      21.60000000      90.00000000     360.00000000      40.77408961       1.37238795
      21.70000000      90.00000000     360.00000000      40.77429352       1.37239482
      21.80000000      90.00000000     360.00000000      40.77449741       1.37240168
      21.90000000      90.00000000     360.00000000      40.77470127       1.37240854
      22.00000000      90.00000000     360.00000000      40.77490510       1.37241540
      22.10000000      90.00000000     360.00000000      40.77510891       1.37242226
      22.20000000      90.00000000     360.00000000      40.77531269       1.37242912
      22.30000000      90.00000000     360.00000000      40.77551645       1.37243598
      22.40000000      90.00000000     360.00000000      40.77572018       1.37244284
      22.50000000      90.00000000     360.00000000      40.77592389       1.37244969
      22.60000000      90.00000000     360.00000000      40.77612757       1.37245655
      22.70000000      90.00000000     360.00000000      40.77633122       1.37246340
      22.80000000      90.00000000     360.00000000      40.77653485       1.37247026
      22.90000000      90.00000000     360.00000000      40.77673845       1.37247711
      23.00000000      90.00000000     360.00000000      40.77694202       1.37248396
