 # applied field (T), theta (degree), phi (degree), abs [muB/unitcell], abs [T]
       0.00000000      90.00000000      90.00000000      40.19838179       1.39981876
       0.10000000      90.00000000      23.36642800      40.19860808       1.39982664
       0.20000000      90.00000000      45.00000000      40.19885654       1.39983529
       0.30000000      90.00000000      45.00000000      40.19904930       1.39984201
       0.40000000      90.00000000      45.00000000      40.19924209       1.39984872
       0.50000000      90.00000000      45.00000000      40.19943491       1.39985543
       0.60000000      90.00000000      45.00000000      40.19962776       1.39986215
       0.70000000      90.00000000      45.00000000      40.19982065       1.39986887
       0.80000000      90.00000000      45.00000000      40.20001357       1.39987558
       0.90000000      90.00000000      45.00000000      40.20020652       1.39988230
       1.00000000      90.00000000      45.00000000      40.20039951       1.39988902
       1.10000000      90.00000000      45.00000000      40.20059252       1.39989574
       1.20000000      90.00000000      45.00000000      40.20078557       1.39990247
       1.30000000      90.00000000      45.00000000      40.20097865       1.39990919
       1.40000000      90.00000000      45.00000000      40.20117176       1.39991592
       1.50000000      90.00000000      45.00000000      40.20136491       1.39992264
       1.60000000      90.00000000      45.00000000      40.20155809       1.39992937
       1.70000000      90.00000000      45.00000000      40.20175130       1.39993610
       1.80000000      90.00000000      45.00000000      40.20194454       1.39994283
       1.90000000      90.00000000      45.00000000      40.20213782       1.39994956
       2.00000000      90.00000000      45.00000000      40.20233112       1.39995629
       2.10000000      90.00000000      45.00000000      40.20252446       1.39996302
       2.20000000      90.00000000      45.00000000      40.20271784       1.39996975
       2.30000000      90.00000000      45.00000000      40.20291124       1.39997649
       2.40000000      90.00000000      45.00000000      40.20310468       1.39998323
       2.50000000      90.00000000      45.00000000      40.20329815       1.39998996
       2.60000000      90.00000000      45.00000000      40.20349165       1.39999670
       2.70000000      90.00000000      45.00000000      40.20368519       1.40000344
       2.80000000      90.00000000      45.00000000      40.20387875       1.40001018
       2.90000000      90.00000000      45.00000000      40.20407235       1.40001692
       3.00000000      90.00000000      45.00000000      40.20426599       1.40002367
       3.10000000      90.00000000      45.00000000      40.20445965       1.40003041
       3.20000000      90.00000000      45.00000000      40.20465335       1.40003715
       3.30000000      90.00000000      45.00000000      40.20484708       1.40004390
       3.40000000      90.00000000      45.00000000      40.20504085       1.40005065
       3.50000000      90.00000000      45.00000000      40.20523465       1.40005740
       3.60000000      90.00000000      45.00000000      40.20542848       1.40006415
       3.70000000      90.00000000      45.00000000      40.20562234       1.40007090
       3.80000000      90.00000000      45.00000000      40.20581623       1.40007765
       3.90000000      90.00000000      45.00000000      40.20601016       1.40008440
       4.00000000      90.00000000      45.00000000      40.20620412       1.40009116
       4.10000000      90.00000000      45.00000000      40.20639812       1.40009791
       4.20000000      90.00000000      45.00000000      40.20659214       1.40010467
       4.30000000      90.00000000      45.00000000      40.20678620       1.40011143
       4.40000000      90.00000000      45.00000000      40.20698030       1.40011818
       4.50000000      90.00000000      45.00000000      40.20717442       1.40012494
       4.60000000      90.00000000      45.00000000      40.20736858       1.40013171
       4.70000000      90.00000000      45.00000000      40.20756277       1.40013847
       4.80000000      90.00000000      45.00000000      40.20775700       1.40014523
       4.90000000      90.00000000      45.00000000      40.20795126       1.40015200
       5.00000000      90.00000000      45.00000000      40.20814555       1.40015876
       5.10000000      90.00000000      45.00000000      40.20833987       1.40016553
       5.20000000      90.00000000      45.00000000      40.20853423       1.40017230
       5.30000000      90.00000000      45.00000000      40.20872862       1.40017907
       5.40000000      90.00000000      45.00000000      40.20892304       1.40018584
       5.50000000      90.00000000      45.00000000      40.20911750       1.40019261
       5.60000000      90.00000000      45.00000000      40.20931199       1.40019938
       5.70000000      90.00000000      45.00000000      40.20950651       1.40020615
       5.80000000      90.00000000      45.00000000      40.20970107       1.40021293
       5.90000000      90.00000000      45.00000000      40.20989566       1.40021971
       6.00000000      90.00000000      45.00000000      40.21009028       1.40022648
       6.10000000      90.00000000      45.00000000      40.21028494       1.40023326
       6.20000000      90.00000000      45.00000000      40.21047963       1.40024004
       6.30000000      90.00000000      45.00000000      40.21067435       1.40024682
       6.40000000      90.00000000      45.00000000      40.21086911       1.40025360
       6.50000000      90.00000000      45.00000000      40.21106390       1.40026039
       6.60000000      90.00000000      45.00000000      40.21125872       1.40026717
       6.70000000      90.00000000      45.00000000      40.21145358       1.40027396
       6.80000000      90.00000000      45.00000000      40.21164847       1.40028074
       6.90000000      90.00000000      45.00000000      40.21184340       1.40028753
       7.00000000      90.00000000      45.00000000      40.21203835       1.40029432
       7.10000000      90.00000000      45.00000000      40.21223334       1.40030111
       7.20000000      90.00000000      45.00000000      40.21242837       1.40030790
       7.30000000      90.00000000      45.00000000      40.21262343       1.40031469
       7.40000000      90.00000000      45.00000000      40.21281852       1.40032149
       7.50000000      90.00000000      45.00000000      40.21301364       1.40032828
       7.60000000      90.00000000      45.00000000      40.21320880       1.40033508
       7.70000000      90.00000000      45.00000000      40.21340399       1.40034188
       7.80000000      90.00000000      45.00000000      40.21359922       1.40034867
       7.90000000      90.00000000      45.00000000      40.21379448       1.40035547
       8.00000000      90.00000000      45.00000000      40.21398977       1.40036227
       8.10000000      90.00000000      45.00000000      40.21418510       1.40036908
       8.20000000      90.00000000      45.00000000      40.21438046       1.40037588
       8.30000000      90.00000000      45.00000000      40.21457586       1.40038268
       8.40000000      90.00000000      45.00000000      40.21477129       1.40038949
       8.50000000      90.00000000      45.00000000      40.21496675       1.40039630
       8.60000000      90.00000000      45.00000000      40.21516224       1.40040310
       8.70000000      90.00000000      45.00000000      40.21535777       1.40040991
       8.80000000      90.00000000      45.00000000      40.21555334       1.40041672
       8.90000000      90.00000000      45.00000000      40.21574894       1.40042353
       9.00000000      90.00000000      45.00000000      40.21594457       1.40043035
       9.10000000      90.00000000      45.00000000      40.21614023       1.40043716
       9.20000000      90.00000000      45.00000000      40.21633593       1.40044397
       9.30000000      90.00000000      45.00000000      40.21653167       1.40045079
       9.40000000      90.00000000      45.00000000      40.21672744       1.40045761
       9.50000000      90.00000000      45.00000000      40.21692324       1.40046443
       9.60000000      90.00000000      45.00000000      40.21711907       1.40047125
       9.70000000      90.00000000      45.00000000      40.21731494       1.40047807
       9.80000000      90.00000000      45.00000000      40.21751085       1.40048489
       9.90000000      90.00000000      45.00000000      40.21770679       1.40049171
      10.00000000      90.00000000      45.00000000      40.21790276       1.40049854
      10.10000000      90.00000000      45.00000000      40.21809877       1.40050536
      10.20000000      90.00000000      45.00000000      40.21829481       1.40051219
      10.30000000      90.00000000      45.00000000      40.21849088       1.40051902
      10.40000000      90.00000000      45.00000000      40.21868699       1.40052584
      10.50000000      90.00000000      45.00000000      40.21888313       1.40053267
      10.60000000      90.00000000      45.00000000      40.21907931       1.40053951
      10.70000000      90.00000000      45.00000000      40.21927552       1.40054634
      10.80000000      90.00000000      45.00000000      40.21947177       1.40055317
      10.90000000      90.00000000      45.00000000      40.21966805       1.40056001
      11.00000000      90.00000000      45.00000000      40.21986437       1.40056684
      11.10000000      90.00000000      45.00000000      40.22006072       1.40057368
      11.20000000      90.00000000      45.00000000      40.22025710       1.40058052
      11.30000000      90.00000000      45.00000000      40.22045352       1.40058736
      11.40000000      90.00000000      45.00000000      40.22064997       1.40059420
      11.50000000      90.00000000      45.00000000      40.22084646       1.40060104
      11.60000000      90.00000000      45.00000000      40.22104298       1.40060789
      11.70000000      90.00000000      45.00000000      40.22123953       1.40061473
      11.80000000      90.00000000      45.00000000      40.22143613       1.40062158
      11.90000000      90.00000000      45.00000000      40.22163275       1.40062842
      12.00000000      90.00000000      45.00000000      40.22182941       1.40063527
      12.10000000      90.00000000      45.00000000      40.22202610       1.40064212
      12.20000000      90.00000000      45.00000000      40.22222283       1.40064897
      12.30000000      90.00000000      45.00000000      40.22241960       1.40065582
      12.40000000      90.00000000      45.00000000      40.22261640       1.40066268
      12.50000000      90.00000000      45.00000000      40.22281323       1.40066953
      12.60000000      90.00000000      45.00000000      40.22301010       1.40067639
      12.70000000      90.00000000      45.00000000      40.22320700       1.40068324
      12.80000000      90.00000000      45.00000000      40.22340394       1.40069010
      12.90000000      90.00000000      45.00000000      40.22360091       1.40069696
      13.00000000      90.00000000      45.00000000      40.22379791       1.40070382
      13.10000000      90.00000000      45.00000000      40.22399496       1.40071068
      13.20000000      90.00000000      45.00000000      40.22419203       1.40071755
      13.30000000      90.00000000      45.00000000      40.22438914       1.40072441
      13.40000000      90.00000000      45.00000000      40.22458629       1.40073127
      13.50000000      90.00000000      45.00000000      40.22478347       1.40073814
      13.60000000      90.00000000      45.00000000      40.22498069       1.40074501
      13.70000000      90.00000000      45.00000000      40.22517794       1.40075188
      13.80000000      90.00000000      45.00000000      40.22537522       1.40075875
      13.90000000      90.00000000      45.00000000      40.22557254       1.40076562
      14.00000000      90.00000000      45.00000000      40.22576990       1.40077249
      14.10000000      90.00000000      45.00000000      40.22596729       1.40077936
      14.20000000      90.00000000      45.00000000      40.22616471       1.40078624
      14.30000000      90.00000000      45.00000000      40.22636217       1.40079312
      14.40000000      90.00000000      45.00000000      40.22655967       1.40079999
      14.50000000      90.00000000      45.00000000      40.22675720       1.40080687
      14.60000000      90.00000000      45.00000000      40.22695477       1.40081375
      14.70000000      90.00000000      45.00000000      40.22715237       1.40082063
      14.80000000      90.00000000      45.00000000      40.22735001       1.40082751
      14.90000000      90.00000000      45.00000000      40.22754768       1.40083440
      15.00000000      90.00000000      45.00000000      40.22774538       1.40084128
      15.10000000      90.00000000      45.00000000      40.22794313       1.40084817
      15.20000000      90.00000000      45.00000000      40.22814090       1.40085506
      15.30000000      90.00000000      45.00000000      40.22833872       1.40086194
      15.40000000      90.00000000      45.00000000      40.22853656       1.40086883
      15.50000000      90.00000000      45.00000000      40.22873445       1.40087572
      15.60000000      90.00000000      45.00000000      40.22893237       1.40088262
      15.70000000      90.00000000      45.00000000      40.22913032       1.40088951
      15.80000000      90.00000000      45.00000000      40.22932831       1.40089640
      15.90000000      90.00000000      45.00000000      40.22952633       1.40090330
      16.00000000      90.00000000      45.00000000      40.22972439       1.40091020
      16.10000000      90.00000000      45.00000000      40.22992249       1.40091710
      16.20000000      90.00000000      45.00000000      40.23012062       1.40092399
      16.30000000      90.00000000      45.00000000      40.23031879       1.40093090
      16.40000000      90.00000000      45.00000000      40.23051699       1.40093780
      16.50000000      90.00000000      45.00000000      40.23071523       1.40094470
      16.60000000      90.00000000      45.00000000      40.23091350       1.40095161
      16.70000000      90.00000000      45.00000000      40.23111181       1.40095851
      16.80000000      90.00000000      45.00000000      40.23131015       1.40096542
      16.90000000      90.00000000      45.00000000      40.23150853       1.40097233
      17.00000000      90.00000000      45.00000000      40.23170695       1.40097924
      17.10000000      90.00000000      45.00000000      40.23190540       1.40098615
      17.20000000      90.00000000      45.00000000      40.23210389       1.40099306
      17.30000000      90.00000000      45.00000000      40.23230241       1.40099997
      17.40000000      90.00000000      45.00000000      40.23250097       1.40100689
      17.50000000      90.00000000      45.00000000      40.23269956       1.40101380
      17.60000000      90.00000000      45.00000000      40.23289819       1.40102072
      17.70000000      90.00000000      45.00000000      40.23309686       1.40102764
      17.80000000      90.00000000      45.00000000      40.23329556       1.40103456
      17.90000000      90.00000000      45.00000000      40.23349430       1.40104148
      18.00000000      90.00000000      45.00000000      40.23369307       1.40104840
      18.10000000      90.00000000      45.00000000      40.23389188       1.40105532
      18.20000000      90.00000000      45.00000000      40.23409073       1.40106224
      18.30000000      90.00000000      45.00000000      40.23428961       1.40106917
      18.40000000      90.00000000      45.00000000      40.23448852       1.40107610
      18.50000000      90.00000000      45.00000000      40.23468748       1.40108303
      18.60000000      90.00000000      45.00000000      40.23488647       1.40108995
      18.70000000      90.00000000      45.00000000      40.23508549       1.40109689
      18.80000000      90.00000000      45.00000000      40.23528455       1.40110382
      18.90000000      90.00000000      45.00000000      40.23548365       1.40111075
      19.00000000      90.00000000      45.00000000      40.23568278       1.40111768
      19.10000000      90.00000000      45.00000000      40.23588195       1.40112462
      19.20000000      90.00000000      45.00000000      40.23608116       1.40113156
      19.30000000      90.00000000      45.00000000      40.23628040       1.40113850
      19.40000000      90.00000000      45.00000000      40.23647968       1.40114543
      19.50000000      90.00000000      45.00000000      40.23667899       1.40115238
      19.60000000      90.00000000      45.00000000      40.23687834       1.40115932
      19.70000000      90.00000000      45.00000000      40.23707773       1.40116626
      19.80000000      90.00000000      45.00000000      40.23727715       1.40117321
      19.90000000      90.00000000      45.00000000      40.23747661       1.40118015
      20.00000000      90.00000000      45.00000000      40.23767610       1.40118710
      20.10000000      90.00000000      45.00000000      40.23787564       1.40119405
      20.20000000      90.00000000      45.00000000      40.23807520       1.40120100
      20.30000000      90.00000000      45.00000000      40.23827481       1.40120795
      20.40000000      90.00000000      45.00000000      40.23847445       1.40121490
      20.50000000      90.00000000      45.00000000      40.23867413       1.40122185
      20.60000000      90.00000000      45.00000000      40.23887384       1.40122881
      20.70000000      90.00000000      45.00000000      40.23907359       1.40123576
      20.80000000      90.00000000      45.00000000      40.23927338       1.40124272
      20.90000000      90.00000000      45.00000000      40.23947320       1.40124968
      21.00000000      90.00000000      45.00000000      40.23967306       1.40125664
      21.10000000      90.00000000      45.00000000      40.23987296       1.40126360
      21.20000000      90.00000000      45.00000000      40.24007289       1.40127056
      21.30000000      90.00000000      45.00000000      40.24027286       1.40127752
      21.40000000      90.00000000      45.00000000      40.24047286       1.40128449
      21.50000000      90.00000000      45.00000000      40.24067291       1.40129145
      21.60000000      90.00000000      45.00000000      40.24087299       1.40129842
      21.70000000      90.00000000      45.00000000      40.24107310       1.40130539
      21.80000000      90.00000000      45.00000000      40.24127325       1.40131236
      21.90000000      90.00000000      45.00000000      40.24147344       1.40131933
      22.00000000      90.00000000      45.00000000      40.24167367       1.40132630
      22.10000000      90.00000000      45.00000000      40.24187393       1.40133328
      22.20000000      90.00000000      45.00000000      40.24207423       1.40134025
      22.30000000      90.00000000      45.00000000      40.24227457       1.40134723
      22.40000000      90.00000000      45.00000000      40.24247494       1.40135421
      22.50000000      90.00000000      45.00000000      40.24267535       1.40136119
      22.60000000      90.00000000      45.00000000      40.24287580       1.40136817
      22.70000000      90.00000000      45.00000000      40.24307628       1.40137515
      22.80000000      90.00000000      45.00000000      40.24327680       1.40138213
      22.90000000      90.00000000      45.00000000      40.24347736       1.40138911
      23.00000000      90.00000000      45.00000000      40.24367796       1.40139610
