 # applied field (T), theta (degree), phi (degree), abs for RE 3-4
     0.00000     0.45917   315.00000     4.69637     0.45917   225.00000     4.69637
     0.10000     0.56509   350.65477     4.69637     0.10984   225.00000     4.69627
     0.20000     0.80303    10.12551     4.69636     0.24012    45.00000     4.69617
     0.30000     1.08972    20.08081     4.69635     0.59075    45.00000     4.69606
     0.40000     1.39550    25.79159     4.69634     0.94209    45.00000     4.69595
     0.50000     1.71022    29.42803     4.69632     1.29416    45.00000     4.69583
     0.60000     2.02980    31.92827     4.69629     1.64700    45.00000     4.69570
     0.70000     2.35232    33.74668     4.69627     2.00064    45.00000     4.69557
     0.80000     2.67682    35.12626     4.69624     2.35510    45.00000     4.69543
     0.90000     3.00271    36.20771     4.69620     2.71043    45.00000     4.69529
     1.00000     3.32968    37.07776     4.69616     3.06664    45.00000     4.69514
     1.10000     3.65752    37.79263     4.69612     3.42377    45.00000     4.69499
     1.20000     3.98610    38.39032     4.69607     3.78185    45.00000     4.69483
     1.30000     4.31533    38.89742     4.69602     4.14091    45.00000     4.69466
     1.40000     4.64516    39.33304     4.69596     4.50097    45.00000     4.69449
     1.50000     4.97555    39.71131     4.69590     4.86206    45.00000     4.69431
     1.60000     5.30650    40.04285     4.69583     5.22422    45.00000     4.69413
     1.70000     5.63798    40.33583     4.69577     5.58747    45.00000     4.69394
     1.80000     5.97000    40.59663     4.69569     5.95183    45.00000     4.69374
     1.90000     6.34958    40.86134     4.69561     6.36907    45.00000     4.69352
     2.00000     6.68276    41.06892     4.69552     6.73591    45.00000     4.69331
     2.10000     7.01650    41.25708     4.69544     7.10394    45.00000     4.69310
     2.20000     7.35080    41.42846     4.69535     7.47320    45.00000     4.69288
     2.30000     7.73306    41.60628     4.69524     7.89616    45.00000     4.69263
     2.40000     8.06864    41.74853     4.69514     8.26812    45.00000     4.69241
     2.50000     8.45238    41.89739     4.69503     8.69421    45.00000     4.69214
     2.60000     8.78930    42.01742     4.69492     9.06897    45.00000     4.69191
     2.70000     9.17463    42.14393     4.69479     9.49832    45.00000     4.69163
     2.80000     9.56085    42.26054     4.69466     9.92945    45.00000     4.69135
     2.90000     9.90000    42.35549     4.69454    10.30869    45.00000     4.69110
     3.00000    10.28794    42.45647     4.69440    10.74323    45.00000     4.69082
     3.10000    10.67685    42.55040     4.69426    11.17964    45.00000     4.69052
     3.20000    11.06676    42.63799     4.69411    11.61792    45.00000     4.69022
     3.30000    11.45769    42.71989     4.69395    12.05810    45.00000     4.68992
     3.40000    11.84967    42.79664     4.69379    12.50022    45.00000     4.68961
     3.50000    12.24274    42.86873     4.69363    12.94427    45.00000     4.68930
     3.60000    12.68579    42.94469     4.69344    13.44565    45.00000     4.68894
     3.70000    13.08124    43.00822     4.69326    13.89389    45.00000     4.68863
     3.80000    13.52705    43.07545     4.69306    14.40001    45.00000     4.68826
     3.90000    13.92502    43.13191     4.69288    14.85248    45.00000     4.68794
     4.00000    14.37372    43.19188     4.69267    15.36339    45.00000     4.68757
     4.10000    14.82402    43.24849     4.69245    15.87684    45.00000     4.68720
     4.20000    15.27594    43.30203     4.69223    16.39285    45.00000     4.68683
     4.30000    15.72952    43.35276     4.69200    16.91141    45.00000     4.68646
     4.40000    16.23507    43.40605     4.69174    17.49009    45.00000     4.68605
     4.50000    16.74276    43.45643     4.69148    18.07191    45.00000     4.68564
     4.60000    17.20193    43.49953     4.69123    18.59863    45.00000     4.68527
     4.70000    17.76473    43.54942     4.69093    19.24485    45.00000     4.68482
     4.80000    18.27910    43.59244     4.69065    19.83592    45.00000     4.68441
     4.90000    18.84719    43.63734     4.69034    20.48915    45.00000     4.68397
     5.00000    19.41812    43.67995     4.69002    21.14596    45.00000     4.68354
     5.10000    19.99194    43.72046     4.68969    21.80629    45.00000     4.68311
     5.20000    20.62092    43.76241     4.68933    22.53017    45.00000     4.68265
     5.30000    21.25344    43.80225     4.68896    23.25800    45.00000     4.68221
     5.40000    21.94239    43.84321     4.68856    24.05045    45.00000     4.68175
     5.50000    22.68880    43.88497     4.68813    24.90834    45.00000     4.68126
     5.60000    23.44021    43.92455     4.68768    25.77094    45.00000     4.68081
     5.70000    90.00000    45.00000     4.67614    88.39483    45.00000     4.68841
     5.80000    90.00000    45.00000     4.67612    88.39504    45.00000     4.68839
     5.90000    90.00000    45.00000     4.67610    88.39526    45.00000     4.68837
     6.00000    90.00000    45.00000     4.67607    88.39547    45.00000     4.68835
     6.10000    90.00000    45.00000     4.67605    88.39569    45.00000     4.68833
     6.20000    90.00000    45.00000     4.67603    88.39591    45.00000     4.68831
     6.30000    90.00000    45.00000     4.67601    88.39612    45.00000     4.68829
     6.40000    90.00000    45.00000     4.67598    88.39634    45.00000     4.68827
     6.50000    90.00000    45.00000     4.67596    88.39655    45.00000     4.68825
     6.60000    90.00000    45.00000     4.67594    88.39677    45.00000     4.68823
     6.70000    90.00000    45.00000     4.67592    88.39698    45.00000     4.68821
     6.80000    90.00000    45.00000     4.67590    88.39720    45.00000     4.68818
     6.90000    90.00000    45.00000     4.67587    88.39741    45.00000     4.68816
     7.00000    90.00000    45.00000     4.67585    88.39763    45.00000     4.68814
     7.10000    90.00000    45.00000     4.67583    88.39784    45.00000     4.68812
     7.20000    90.00000    45.00000     4.67581    88.39806    45.00000     4.68810
     7.30000    90.00000    45.00000     4.67578    88.39827    45.00000     4.68808
     7.40000    90.00000    45.00000     4.67576    88.39849    45.00000     4.68806
     7.50000    90.00000    45.00000     4.67574    88.39870    45.00000     4.68804
     7.60000    90.00000    45.00000     4.67572    88.39892    45.00000     4.68802
     7.70000    90.00000    45.00000     4.67570    88.39913    45.00000     4.68800
     7.80000    90.00000    45.00000     4.67567    88.39935    45.00000     4.68798
     7.90000    90.00000    45.00000     4.67565    88.39956    45.00000     4.68796
     8.00000    90.00000    45.00000     4.67563    88.39978    45.00000     4.68793
     8.10000    90.00000    45.00000     4.67561    88.39999    45.00000     4.68791
     8.20000    90.00000    45.00000     4.67559    88.40020    45.00000     4.68789
     8.30000    90.00000    45.00000     4.67556    88.40042    45.00000     4.68787
     8.40000    90.00000    45.00000     4.67554    88.40063    45.00000     4.68785
     8.50000    90.00000    45.00000     4.67552    88.40085    45.00000     4.68783
     8.60000    90.00000    45.00000     4.67550    88.40106    45.00000     4.68781
     8.70000    90.00000    45.00000     4.67547    88.40127    45.00000     4.68779
     8.80000    90.00000    45.00000     4.67545    88.40149    45.00000     4.68777
     8.90000    90.00000    45.00000     4.67543    88.40170    45.00000     4.68775
     9.00000    90.00000    45.00000     4.67541    88.40192    45.00000     4.68773
     9.10000    90.00000    45.00000     4.67539    88.40213    45.00000     4.68771
     9.20000    90.00000    45.00000     4.67536    88.40234    45.00000     4.68768
     9.30000    90.00000    45.00000     4.67534    88.40256    45.00000     4.68766
     9.40000    90.00000    45.00000     4.67532    88.40277    45.00000     4.68764
     9.50000    90.00000    45.00000     4.67530    88.40298    45.00000     4.68762
     9.60000    90.00000    45.00000     4.67527    88.40320    45.00000     4.68760
     9.70000    90.00000    45.00000     4.67525    88.40341    45.00000     4.68758
     9.80000    90.00000    45.00000     4.67523    88.40362    45.00000     4.68756
     9.90000    90.00000    45.00000     4.67521    88.40384    45.00000     4.68754
    10.00000    90.00000    45.00000     4.67519    88.40405    45.00000     4.68752
    10.10000    90.00000    45.00000     4.67516    88.40426    45.00000     4.68750
    10.20000    90.00000    45.00000     4.67514    88.40448    45.00000     4.68748
    10.30000    90.00000    45.00000     4.67512    88.40469    45.00000     4.68745
    10.40000    90.00000    45.00000     4.67510    88.40490    45.00000     4.68743
    10.50000    90.00000    45.00000     4.67507    88.40512    45.00000     4.68741
    10.60000    90.00000    45.00000     4.67505    88.40533    45.00000     4.68739
    10.70000    90.00000    45.00000     4.67503    88.40554    45.00000     4.68737
    10.80000    90.00000    45.00000     4.67501    88.40575    45.00000     4.68735
    10.90000    90.00000    45.00000     4.67499    88.40597    45.00000     4.68733
    11.00000    90.00000    45.00000     4.67496    88.40618    45.00000     4.68731
    11.10000    90.00000    45.00000     4.67494    88.40639    45.00000     4.68729
    11.20000    90.00000    45.00000     4.67492    88.40660    45.00000     4.68727
    11.30000    90.00000    45.00000     4.67490    88.40682    45.00000     4.68725
    11.40000    90.00000    45.00000     4.67487    88.40703    45.00000     4.68722
    11.50000    90.00000    45.00000     4.67485    88.40724    45.00000     4.68720
    11.60000    90.00000    45.00000     4.67483    88.40745    45.00000     4.68718
    11.70000    90.00000    45.00000     4.67481    88.40767    45.00000     4.68716
    11.80000    90.00000    45.00000     4.67478    88.40788    45.00000     4.68714
    11.90000    90.00000    45.00000     4.67476    88.40809    45.00000     4.68712
    12.00000    90.00000    45.00000     4.67474    88.40830    45.00000     4.68710
    12.10000    90.00000    45.00000     4.67472    88.40851    45.00000     4.68708
    12.20000    90.00000    45.00000     4.67470    88.40873    45.00000     4.68706
    12.30000    90.00000    45.00000     4.67467    88.40894    45.00000     4.68704
    12.40000    90.00000    45.00000     4.67465    88.40915    45.00000     4.68702
    12.50000    90.00000    45.00000     4.67463    88.40936    45.00000     4.68699
    12.60000    90.00000    45.00000     4.67461    88.40957    45.00000     4.68697
    12.70000    90.00000    45.00000     4.67458    88.40978    45.00000     4.68695
    12.80000    90.00000    45.00000     4.67456    88.41000    45.00000     4.68693
    12.90000    90.00000    45.00000     4.67454    88.41021    45.00000     4.68691
    13.00000    90.00000    45.00000     4.67452    88.41042    45.00000     4.68689
    13.10000    90.00000    45.00000     4.67449    88.41063    45.00000     4.68687
    13.20000    90.00000    45.00000     4.67447    88.41084    45.00000     4.68685
    13.30000    90.00000    45.00000     4.67445    88.41105    45.00000     4.68683
    13.40000    90.00000    45.00000     4.67443    88.41126    45.00000     4.68681
    13.50000    90.00000    45.00000     4.67441    88.41147    45.00000     4.68678
    13.60000    90.00000    45.00000     4.67438    88.41168    45.00000     4.68676
    13.70000    90.00000    45.00000     4.67436    88.41190    45.00000     4.68674
    13.80000    90.00000    45.00000     4.67434    88.41211    45.00000     4.68672
    13.90000    90.00000    45.00000     4.67432    88.41232    45.00000     4.68670
    14.00000    90.00000    45.00000     4.67429    88.41253    45.00000     4.68668
    14.10000    90.00000    45.00000     4.67427    88.41274    45.00000     4.68666
    14.20000    90.00000    45.00000     4.67425    88.41295    45.00000     4.68664
    14.30000    90.00000    45.00000     4.67423    88.41316    45.00000     4.68662
    14.40000    90.00000    45.00000     4.67420    88.41337    45.00000     4.68660
    14.50000    90.00000    45.00000     4.67418    88.41358    45.00000     4.68657
    14.60000    90.00000    45.00000     4.67416    88.41379    45.00000     4.68655
    14.70000    90.00000    45.00000     4.67414    88.41400    45.00000     4.68653
    14.80000    90.00000    45.00000     4.67411    88.41421    45.00000     4.68651
    14.90000    90.00000    45.00000     4.67409    88.41442    45.00000     4.68649
    15.00000    90.00000    45.00000     4.67407    88.41463    45.00000     4.68647
    15.10000    90.00000    45.00000     4.67405    88.41484    45.00000     4.68645
    15.20000    90.00000    45.00000     4.67402    88.41505    45.00000     4.68643
    15.30000    90.00000    45.00000     4.67400    88.41526    45.00000     4.68641
    15.40000    90.00000    45.00000     4.67398    88.41547    45.00000     4.68639
    15.50000    90.00000    45.00000     4.67396    88.41568    45.00000     4.68636
    15.60000    90.00000    45.00000     4.67394    88.41589    45.00000     4.68634
    15.70000    90.00000    45.00000     4.67391    88.41610    45.00000     4.68632
    15.80000    90.00000    45.00000     4.67389    88.41631    45.00000     4.68630
    15.90000    90.00000    45.00000     4.67387    88.41652    45.00000     4.68628
    16.00000    90.00000    45.00000     4.67385    88.41673    45.00000     4.68626
    16.10000    90.00000    45.00000     4.67382    88.41694    45.00000     4.68624
    16.20000    90.00000    45.00000     4.67380    88.41715    45.00000     4.68622
    16.30000    90.00000    45.00000     4.67378    88.41736    45.00000     4.68620
    16.40000    90.00000    45.00000     4.67376    88.41757    45.00000     4.68617
    16.50000    90.00000    45.00000     4.67373    88.41778    45.00000     4.68615
    16.60000    90.00000    45.00000     4.67371    88.41798    45.00000     4.68613
    16.70000    90.00000    45.00000     4.67369    88.41819    45.00000     4.68611
    16.80000    90.00000    45.00000     4.67367    88.41840    45.00000     4.68609
    16.90000    90.00000    45.00000     4.67364    88.41861    45.00000     4.68607
    17.00000    90.00000    45.00000     4.67362    88.41882    45.00000     4.68605
    17.10000    90.00000    45.00000     4.67360    88.41903    45.00000     4.68603
    17.20000    90.00000    45.00000     4.67358    88.41924    45.00000     4.68601
    17.30000    90.00000    45.00000     4.67355    88.41945    45.00000     4.68598
    17.40000    90.00000    45.00000     4.67353    88.41965    45.00000     4.68596
    17.50000    90.00000    45.00000     4.67351    88.41986    45.00000     4.68594
    17.60000    90.00000    45.00000     4.67349    88.42007    45.00000     4.68592
    17.70000    90.00000    45.00000     4.67346    88.42028    45.00000     4.68590
    17.80000    90.00000    45.00000     4.67344    88.42049    45.00000     4.68588
    17.90000    90.00000    45.00000     4.67342    88.42070    45.00000     4.68586
    18.00000    90.00000    45.00000     4.67340    88.42091    45.00000     4.68584
    18.10000    90.00000    45.00000     4.67337    88.42111    45.00000     4.68582
    18.20000    90.00000    45.00000     4.67335    88.42132    45.00000     4.68579
    18.30000    90.00000    45.00000     4.67333    88.42153    45.00000     4.68577
    18.40000    90.00000    45.00000     4.67331    88.42174    45.00000     4.68575
    18.50000    90.00000    45.00000     4.67328    88.42195    45.00000     4.68573
    18.60000    90.00000    45.00000     4.67326    88.42215    45.00000     4.68571
    18.70000    90.00000    45.00000     4.67324    88.42236    45.00000     4.68569
    18.80000    90.00000    45.00000     4.67322    88.42257    45.00000     4.68567
    18.90000    90.00000    45.00000     4.67319    88.42278    45.00000     4.68565
    19.00000    90.00000    45.00000     4.67317    88.42298    45.00000     4.68563
    19.10000    90.00000    45.00000     4.67315    88.42319    45.00000     4.68560
    19.20000    90.00000    45.00000     4.67313    88.42340    45.00000     4.68558
    19.30000    90.00000    45.00000     4.67310    88.42361    45.00000     4.68556
    19.40000    90.00000    45.00000     4.67308    88.42381    45.00000     4.68554
    19.50000    90.00000    45.00000     4.67306    88.42402    45.00000     4.68552
    19.60000    90.00000    45.00000     4.67304    88.42423    45.00000     4.68550
    19.70000    90.00000    45.00000     4.67301    88.42444    45.00000     4.68548
    19.80000    90.00000    45.00000     4.67299    88.42464    45.00000     4.68546
    19.90000    90.00000    45.00000     4.67297    88.42485    45.00000     4.68544
    20.00000    90.00000    45.00000     4.67295    88.42506    45.00000     4.68541
    20.10000    90.00000    45.00000     4.67292    88.42526    45.00000     4.68539
    20.20000    90.00000    45.00000     4.67290    88.42547    45.00000     4.68537
    20.30000    90.00000    45.00000     4.67288    88.42568    45.00000     4.68535
    20.40000    90.00000    45.00000     4.67286    88.42589    45.00000     4.68533
    20.50000    90.00000    45.00000     4.67283    88.42609    45.00000     4.68531
    20.60000    90.00000    45.00000     4.67281    88.42630    45.00000     4.68529
    20.70000    90.00000    45.00000     4.67279    88.42651    45.00000     4.68527
    20.80000    90.00000    45.00000     4.67277    88.42671    45.00000     4.68525
    20.90000    90.00000    45.00000     4.67274    88.42692    45.00000     4.68522
    21.00000    90.00000    45.00000     4.67272    88.42712    45.00000     4.68520
    21.10000    90.00000    45.00000     4.67270    88.42733    45.00000     4.68518
    21.20000    90.00000    45.00000     4.67268    88.42754    45.00000     4.68516
    21.30000    90.00000    45.00000     4.67265    88.42774    45.00000     4.68514
    21.40000    90.00000    45.00000     4.67263    88.42795    45.00000     4.68512
    21.50000    90.00000    45.00000     4.67261    88.42816    45.00000     4.68510
    21.60000    90.00000    45.00000     4.67259    88.42836    45.00000     4.68508
    21.70000    90.00000    45.00000     4.67256    88.42857    45.00000     4.68505
    21.80000    90.00000    45.00000     4.67254    88.42877    45.00000     4.68503
    21.90000    90.00000    45.00000     4.67252    88.42898    45.00000     4.68501
    22.00000    90.00000    45.00000     4.67250    88.42919    45.00000     4.68499
    22.10000    90.00000    45.00000     4.67247    88.42939    45.00000     4.68497
    22.20000    90.00000    45.00000     4.67245    88.42960    45.00000     4.68495
    22.30000    90.00000    45.00000     4.67243    88.42980    45.00000     4.68493
    22.40000    90.00000    45.00000     4.67240    88.43001    45.00000     4.68491
    22.50000    90.00000    45.00000     4.67238    88.43021    45.00000     4.68488
    22.60000    90.00000    45.00000     4.67236    88.43042    45.00000     4.68486
    22.70000    90.00000    45.00000     4.67234    88.43063    45.00000     4.68484
    22.80000    90.00000    45.00000     4.67231    88.43083    45.00000     4.68482
    22.90000    90.00000    45.00000     4.67229    88.43104    45.00000     4.68480
    23.00000    90.00000    45.00000     4.67227    88.43124    45.00000     4.68478
    23.10000    90.00000    45.00000     4.67225    88.43145    45.00000     4.68476
    23.20000    90.00000    45.00000     4.67222    88.43165    45.00000     4.68474
    23.30000    90.00000    45.00000     4.67220    88.43186    45.00000     4.68471
