 # applied field (T), theta (degree), phi (degree), abs for RE 3-4
     0.00000     0.00000     0.00000     4.70633     0.00000     0.00000     4.70633
     0.10000     0.25798   360.00000     4.70633     0.20716   360.00000     4.70633
     0.20000     0.51597   360.00000     4.70632     0.41433   360.00000     4.70633
     0.30000     0.77400   360.00000     4.70631     0.62152   360.00000     4.70632
     0.40000     1.08290   360.00000     4.70629     0.86954   360.00000     4.70631
     0.50000     1.34104   360.00000     4.70627     1.07679   360.00000     4.70630
     0.60000     1.59924   360.00000     4.70625     1.28408   360.00000     4.70629
     0.70000     1.85752   360.00000     4.70622     1.49141   360.00000     4.70628
     0.80000     2.11591   360.00000     4.70618     1.69880   360.00000     4.70626
     0.90000     2.37441   360.00000     4.70614     1.90626   360.00000     4.70624
     1.00000     2.68400   360.00000     4.70609     2.15467   360.00000     4.70622
     1.10000     2.94280   360.00000     4.70604     2.36229   360.00000     4.70620
     1.20000     3.20175   360.00000     4.70599     2.57000   360.00000     4.70618
     1.30000     3.46087   360.00000     4.70594     2.77780   360.00000     4.70615
     1.40000     3.72018   360.00000     4.70587     2.98571   360.00000     4.70612
     1.50000     4.03083   360.00000     4.70580     3.23472   360.00000     4.70609
     1.60000     4.29058   360.00000     4.70573     3.44289   360.00000     4.70605
     1.70000     4.55057   360.00000     4.70565     3.65118   360.00000     4.70602
     1.80000     4.81079   360.00000     4.70557     3.85961   360.00000     4.70598
     1.90000     5.07127   360.00000     4.70549     4.06819   360.00000     4.70594
     2.00000     5.38341   360.00000     4.70538     4.31805   360.00000     4.70590
     2.10000     5.64450   360.00000     4.70529     4.52697   360.00000     4.70585
     2.20000     5.90587   360.00000     4.70519     4.73606   360.00000     4.70581
     2.30000     6.21916   360.00000     4.70507     4.98656   360.00000     4.70575
     2.40000     6.48123   360.00000     4.70497     5.19605   360.00000     4.70570
     2.50000     6.74365   360.00000     4.70486     5.40574   360.00000     4.70565
     2.60000     7.05823   360.00000     4.70472     5.65699   360.00000     4.70559
     2.70000     7.32143   360.00000     4.70460     5.86713   360.00000     4.70553
     2.80000     7.58501   360.00000     4.70447     6.07749   360.00000     4.70547
     2.90000     7.90105   360.00000     4.70432     6.32958   360.00000     4.70540
     3.00000     8.16551   360.00000     4.70419     6.54045   360.00000     4.70534
     3.10000     8.48264   360.00000     4.70402     6.79318   360.00000     4.70526
     3.20000     8.74804   360.00000     4.70388     7.00460   360.00000     4.70520
     3.30000     9.01389   360.00000     4.70374     7.21628   360.00000     4.70513
     3.40000     9.33273   360.00000     4.70356     7.47001   360.00000     4.70504
     3.50000     9.65226   360.00000     4.70337     7.72414   360.00000     4.70495
     3.60000     9.91972   360.00000     4.70321     7.93678   360.00000     4.70488
     3.70000    10.24055   360.00000     4.70302     8.19168   360.00000     4.70479
     3.80000    10.50913   360.00000     4.70285     8.40498   360.00000     4.70471
     3.90000    10.83133   360.00000     4.70265     8.66071   360.00000     4.70461
     4.00000    11.15430   360.00000     4.70244     8.91690   360.00000     4.70451
     4.10000    11.42472   360.00000     4.70226     9.13130   360.00000     4.70442
     4.20000    11.74917   360.00000     4.70204     9.38838   360.00000     4.70431
     4.30000    12.07445   360.00000     4.70181     9.64596   360.00000     4.70421
     4.40000    12.40059   360.00000     4.70158     9.90407   360.00000     4.70409
     4.50000    12.67369   360.00000     4.70139    10.12010   360.00000     4.70400
     4.60000    13.00143   360.00000     4.70115    10.37920   360.00000     4.70388
     4.70000    13.33007   360.00000     4.70090    10.63885   360.00000     4.70376
     4.80000    13.65962   360.00000     4.70065    10.89907   360.00000     4.70364
     4.90000    13.99012   360.00000     4.70040    11.15988   360.00000     4.70351
     5.00000    14.32156   360.00000     4.70014    11.42129   360.00000     4.70338
     5.10000    14.65397   360.00000     4.69988    11.68331   360.00000     4.70325
     5.20000    15.04236   360.00000     4.69957    11.98924   360.00000     4.70309
     5.30000    15.37692   360.00000     4.69930    12.25264   360.00000     4.70296
     5.40000    15.71249   360.00000     4.69903    12.51670   360.00000     4.70282
     5.50000    16.04909   360.00000     4.69875    12.78143   360.00000     4.70267
     5.60000    16.44244   360.00000     4.69842    13.09060   360.00000     4.70250
     5.70000    16.78132   360.00000     4.69814    13.35683   360.00000     4.70235
     5.80000    17.17735   360.00000     4.69780    13.66779   360.00000     4.70218
     5.90000    17.57486   360.00000     4.69746    13.97973   360.00000     4.70200
     6.00000    17.91734   360.00000     4.69716    14.24841   360.00000     4.70184
     6.10000    18.31763   360.00000     4.69681    14.56227   360.00000     4.70165
     6.20000    18.71943   360.00000     4.69646    14.87718   360.00000     4.70146
     6.30000    19.12277   360.00000     4.69611    15.19318   360.00000     4.70126
     6.40000    19.52765   360.00000     4.69575    15.51028   360.00000     4.70106
     6.50000    19.93409   360.00000     4.69539    15.82851   360.00000     4.70086
     6.60000    20.34209   360.00000     4.69502    16.14788   360.00000     4.70065
     6.70000    20.80972   360.00000     4.69461    16.51382   360.00000     4.70041
     6.80000    21.22110   360.00000     4.69424    16.83572   360.00000     4.70020
     6.90000    21.69260   360.00000     4.69382    17.20461   360.00000     4.69995
     7.00000    22.16618   360.00000     4.69340    17.57512   360.00000     4.69970
     7.10000    22.64184   360.00000     4.69298    17.94727   360.00000     4.69944
     7.20000    23.11957   360.00000     4.69256    18.32111   360.00000     4.69918
     7.30000    23.65898   360.00000     4.69209    18.74329   360.00000     4.69888
     7.40000    24.14110   360.00000     4.69167    19.12081   360.00000     4.69861
     7.50000    24.68543   360.00000     4.69120    19.54722   360.00000     4.69830
     7.60000    25.23234   360.00000     4.69074    19.97591   360.00000     4.69798
     7.70000    25.78180   360.00000     4.69028    20.40695   360.00000     4.69766
     7.80000    26.39482   360.00000     4.68977    20.88829   360.00000     4.69730
     7.90000    27.01091   360.00000     4.68928    21.37263   360.00000     4.69693
     8.00000    27.63001   360.00000     4.68879    21.86002   360.00000     4.69656
     8.10000    28.31402   360.00000     4.68826    22.39940   360.00000     4.69614
     8.20000    29.06380   360.00000     4.68771    22.99186   360.00000     4.69568
     8.30000    29.81758   360.00000     4.68717    23.58898   360.00000     4.69521
     8.40000    30.57519   360.00000     4.68665    24.19086   360.00000     4.69473
     8.50000    31.46302   360.00000     4.68608    24.89856   360.00000     4.69417
     8.60000    90.00000   360.00000     4.70444    90.00000   360.00000     4.67235
     8.70000    90.00000   360.00000     4.70442    90.00000   360.00000     4.67233
     8.80000    90.00000   360.00000     4.70440    90.00000   360.00000     4.67230
     8.90000    90.00000   360.00000     4.70439    90.00000   360.00000     4.67228
     9.00000    90.00000   360.00000     4.70437    90.00000   360.00000     4.67226
     9.10000    90.00000   360.00000     4.70435    90.00000   360.00000     4.67224
     9.20000    90.00000   360.00000     4.70433    90.00000   360.00000     4.67222
     9.30000    90.00000   360.00000     4.70431    90.00000   360.00000     4.67219
     9.40000    90.00000   360.00000     4.70429    90.00000   360.00000     4.67217
     9.50000    90.00000   360.00000     4.70427    90.00000   360.00000     4.67215
     9.60000    90.00000   360.00000     4.70426    90.00000   360.00000     4.67213
     9.70000    90.00000   360.00000     4.70424    90.00000   360.00000     4.67210
     9.80000    90.00000   360.00000     4.70422    90.00000   360.00000     4.67208
     9.90000    90.00000   360.00000     4.70420    90.00000   360.00000     4.67206
    10.00000    90.00000   360.00000     4.70418    90.00000   360.00000     4.67204
    10.10000    90.00000   360.00000     4.70416    90.00000   360.00000     4.67202
    10.20000    90.00000   360.00000     4.70415    90.00000   360.00000     4.67199
    10.30000    90.00000   360.00000     4.70413    90.00000   360.00000     4.67197
    10.40000    90.00000   360.00000     4.70411    90.00000   360.00000     4.67195
    10.50000    90.00000   360.00000     4.70409    90.00000   360.00000     4.67193
    10.60000    90.00000   360.00000     4.70407    90.00000   360.00000     4.67190
    10.70000    90.00000   360.00000     4.70405    90.00000   360.00000     4.67188
    10.80000    90.00000   360.00000     4.70403    90.00000   360.00000     4.67186
    10.90000    90.00000   360.00000     4.70402    90.00000   360.00000     4.67184
    11.00000    90.00000   360.00000     4.70400    90.00000   360.00000     4.67181
    11.10000    90.00000   360.00000     4.70398    90.00000   360.00000     4.67179
    11.20000    90.00000   360.00000     4.70396    90.00000   360.00000     4.67177
    11.30000    90.00000   360.00000     4.70394    90.00000   360.00000     4.67175
    11.40000    90.00000   360.00000     4.70392    90.00000   360.00000     4.67173
    11.50000    90.00000   360.00000     4.70391    90.00000   360.00000     4.67170
    11.60000    90.00000   360.00000     4.70389    90.00000   360.00000     4.67168
    11.70000    90.00000   360.00000     4.70387    90.00000   360.00000     4.67166
    11.80000    90.00000   360.00000     4.70385    90.00000   360.00000     4.67164
    11.90000    90.00000   360.00000     4.70383    90.00000   360.00000     4.67161
    12.00000    90.00000   360.00000     4.70381    90.00000   360.00000     4.67159
    12.10000    90.00000   360.00000     4.70379    90.00000   360.00000     4.67157
    12.20000    90.00000   360.00000     4.70378    90.00000   360.00000     4.67155
    12.30000    90.00000   360.00000     4.70376    90.00000   360.00000     4.67152
    12.40000    90.00000   360.00000     4.70374    90.00000   360.00000     4.67150
    12.50000    90.00000   360.00000     4.70372    90.00000   360.00000     4.67148
    12.60000    90.00000   360.00000     4.70370    90.00000   360.00000     4.67146
    12.70000    90.00000   360.00000     4.70368    90.00000   360.00000     4.67144
    12.80000    90.00000   360.00000     4.70366    90.00000   360.00000     4.67141
    12.90000    90.00000   360.00000     4.70365    90.00000   360.00000     4.67139
    13.00000    90.00000   360.00000     4.70363    90.00000   360.00000     4.67137
    13.10000    90.00000   360.00000     4.70361    90.00000   360.00000     4.67135
    13.20000    90.00000   360.00000     4.70359    90.00000   360.00000     4.67132
    13.30000    90.00000   360.00000     4.70357    90.00000   360.00000     4.67130
    13.40000    90.00000   360.00000     4.70355    90.00000   360.00000     4.67128
    13.50000    90.00000   360.00000     4.70353    90.00000   360.00000     4.67126
    13.60000    90.00000   360.00000     4.70352    90.00000   360.00000     4.67123
    13.70000    90.00000   360.00000     4.70350    90.00000   360.00000     4.67121
    13.80000    90.00000   360.00000     4.70348    90.00000   360.00000     4.67119
    13.90000    90.00000   360.00000     4.70346    90.00000   360.00000     4.67117
    14.00000    90.00000   360.00000     4.70344    90.00000   360.00000     4.67114
    14.10000    90.00000   360.00000     4.70342    90.00000   360.00000     4.67112
    14.20000    90.00000   360.00000     4.70340    90.00000   360.00000     4.67110
    14.30000    90.00000   360.00000     4.70339    90.00000   360.00000     4.67108
    14.40000    90.00000   360.00000     4.70337    90.00000   360.00000     4.67106
    14.50000    90.00000   360.00000     4.70335    90.00000   360.00000     4.67103
    14.60000    90.00000   360.00000     4.70333    90.00000   360.00000     4.67101
    14.70000    90.00000   360.00000     4.70331    90.00000   360.00000     4.67099
    14.80000    90.00000   360.00000     4.70329    90.00000   360.00000     4.67097
    14.90000    90.00000   360.00000     4.70327    90.00000   360.00000     4.67094
    15.00000    90.00000   360.00000     4.70326    90.00000   360.00000     4.67092
    15.10000    90.00000   360.00000     4.70324    90.00000   360.00000     4.67090
    15.20000    90.00000   360.00000     4.70322    90.00000   360.00000     4.67088
    15.30000    90.00000   360.00000     4.70320    90.00000   360.00000     4.67085
    15.40000    90.00000   360.00000     4.70318    90.00000   360.00000     4.67083
    15.50000    90.00000   360.00000     4.70316    90.00000   360.00000     4.67081
    15.60000    90.00000   360.00000     4.70314    90.00000   360.00000     4.67079
    15.70000    90.00000   360.00000     4.70313    90.00000   360.00000     4.67076
    15.80000    90.00000   360.00000     4.70311    90.00000   360.00000     4.67074
    15.90000    90.00000   360.00000     4.70309    90.00000   360.00000     4.67072
    16.00000    90.00000   360.00000     4.70307    90.00000   360.00000     4.67070
    16.10000    90.00000   360.00000     4.70305    90.00000   360.00000     4.67067
    16.20000    90.00000   360.00000     4.70303    90.00000   360.00000     4.67065
    16.30000    90.00000   360.00000     4.70301    90.00000   360.00000     4.67063
    16.40000    90.00000   360.00000     4.70300    90.00000   360.00000     4.67061
    16.50000    90.00000   360.00000     4.70298    90.00000   360.00000     4.67058
    16.60000    90.00000   360.00000     4.70296    90.00000   360.00000     4.67056
    16.70000    90.00000   360.00000     4.70294    90.00000   360.00000     4.67054
    16.80000    90.00000   360.00000     4.70292    90.00000   360.00000     4.67052
    16.90000    90.00000   360.00000     4.70290    90.00000   360.00000     4.67049
    17.00000    90.00000   360.00000     4.70288    90.00000   360.00000     4.67047
    17.10000    90.00000   360.00000     4.70287    90.00000   360.00000     4.67045
    17.20000    90.00000   360.00000     4.70285    90.00000   360.00000     4.67043
    17.30000    90.00000   360.00000     4.70283    90.00000   360.00000     4.67040
    17.40000    90.00000   360.00000     4.70281    90.00000   360.00000     4.67038
    17.50000    90.00000   360.00000     4.70279    90.00000   360.00000     4.67036
    17.60000    90.00000   360.00000     4.70277    90.00000   360.00000     4.67034
    17.70000    90.00000   360.00000     4.70275    90.00000   360.00000     4.67031
    17.80000    90.00000   360.00000     4.70274    90.00000   360.00000     4.67029
    17.90000    90.00000   360.00000     4.70272    90.00000   360.00000     4.67027
    18.00000    90.00000   360.00000     4.70270    90.00000   360.00000     4.67025
    18.10000    90.00000   360.00000     4.70268    90.00000   360.00000     4.67022
    18.20000    90.00000   360.00000     4.70266    90.00000   360.00000     4.67020
    18.30000    90.00000   360.00000     4.70264    90.00000   360.00000     4.67018
    18.40000    90.00000   360.00000     4.70262    90.00000   360.00000     4.67016
    18.50000    90.00000   360.00000     4.70260    90.00000   360.00000     4.67013
    18.60000    90.00000   360.00000     4.70259    90.00000   360.00000     4.67011
    18.70000    90.00000   360.00000     4.70257    90.00000   360.00000     4.67009
    18.80000    90.00000   360.00000     4.70255    90.00000   360.00000     4.67007
    18.90000    90.00000   360.00000     4.70253    90.00000   360.00000     4.67004
    19.00000    90.00000   360.00000     4.70251    90.00000   360.00000     4.67002
    19.10000    90.00000   360.00000     4.70249    90.00000   360.00000     4.67000
    19.20000    90.00000   360.00000     4.70247    90.00000   360.00000     4.66998
    19.30000    90.00000   360.00000     4.70246    90.00000   360.00000     4.66995
    19.40000    90.00000   360.00000     4.70244    90.00000   360.00000     4.66993
    19.50000    90.00000   360.00000     4.70242    90.00000   360.00000     4.66991
    19.60000    90.00000   360.00000     4.70240    90.00000   360.00000     4.66989
    19.70000    90.00000   360.00000     4.70238    90.00000   360.00000     4.66986
    19.80000    90.00000   360.00000     4.70236    90.00000   360.00000     4.66984
    19.90000    90.00000   360.00000     4.70234    90.00000   360.00000     4.66982
    20.00000    90.00000   360.00000     4.70232    90.00000   360.00000     4.66980
    20.10000    90.00000   360.00000     4.70231    90.00000   360.00000     4.66977
    20.20000    90.00000   360.00000     4.70229    90.00000   360.00000     4.66975
    20.30000    90.00000   360.00000     4.70227    90.00000   360.00000     4.66973
    20.40000    90.00000   360.00000     4.70225    90.00000   360.00000     4.66971
    20.50000    90.00000   360.00000     4.70223    90.00000   360.00000     4.66968
    20.60000    90.00000   360.00000     4.70221    90.00000   360.00000     4.66966
    20.70000    90.00000   360.00000     4.70219    90.00000   360.00000     4.66964
    20.80000    90.00000   360.00000     4.70217    90.00000   360.00000     4.66962
    20.90000    90.00000   360.00000     4.70216    90.00000   360.00000     4.66959
    21.00000    90.00000   360.00000     4.70214    90.00000   360.00000     4.66957
    21.10000    90.00000   360.00000     4.70212    90.00000   360.00000     4.66955
    21.20000    90.00000   360.00000     4.70210    90.00000   360.00000     4.66953
    21.30000    90.00000   360.00000     4.70208    90.00000   360.00000     4.66950
    21.40000    90.00000   360.00000     4.70206    90.00000   360.00000     4.66948
    21.50000    90.00000   360.00000     4.70204    90.00000   360.00000     4.66946
    21.60000    90.00000   360.00000     4.70202    90.00000   360.00000     4.66944
    21.70000    90.00000   360.00000     4.70201    90.00000   360.00000     4.66941
    21.80000    90.00000   360.00000     4.70199    90.00000   360.00000     4.66939
    21.90000    90.00000   360.00000     4.70197    90.00000   360.00000     4.66937
    22.00000    90.00000   360.00000     4.70195    90.00000   360.00000     4.66934
    22.10000    90.00000   360.00000     4.70193    90.00000   360.00000     4.66932
    22.20000    90.00000   360.00000     4.70191    90.00000   360.00000     4.66930
    22.30000    90.00000   360.00000     4.70189    90.00000   360.00000     4.66928
    22.40000    90.00000   360.00000     4.70187    90.00000   360.00000     4.66925
    22.50000    90.00000   360.00000     4.70186    90.00000   360.00000     4.66923
    22.60000    90.00000   360.00000     4.70184    90.00000   360.00000     4.66921
    22.70000    90.00000   360.00000     4.70182    90.00000   360.00000     4.66919
    22.80000    90.00000   360.00000     4.70180    90.00000   360.00000     4.66916
    22.90000    90.00000   360.00000     4.70178    90.00000   360.00000     4.66914
    23.00000    90.00000   360.00000     4.70176    90.00000   360.00000     4.66912
    23.10000    90.00000   360.00000     4.70174    90.00000   360.00000     4.66910
    23.20000    90.00000   360.00000     4.70172    90.00000   360.00000     4.66907
    23.30000    90.00000   360.00000     4.70171    90.00000   360.00000     4.66905
