 # applied field (T), theta (degree), phi (degree), abs [muB/unitcell], abs [T]
       0.00000000       0.00000000       0.00000000      43.23371310       1.50551739
       0.10000000       0.39815954     360.00000000      43.23369986       1.50551693
       0.20000000       0.79632001     360.00000000      43.23366014       1.50551554
       0.30000000       1.19448234     360.00000000      43.23359396       1.50551324
       0.40000000       1.59264747     360.00000000      43.23350135       1.50551001
       0.50000000       1.99081631     360.00000000      43.23338234       1.50550587
       0.60000000       2.44578069     360.00000000      43.23321263       1.50549996
       0.70000000       2.84396065     360.00000000      43.23303698       1.50549384
       0.80000000       3.24214726     360.00000000      43.23283510       1.50548681
       0.90000000       3.64034142     360.00000000      43.23260707       1.50547887
       1.00000000       4.03854406     360.00000000      43.23235297       1.50547002
       1.10000000       4.43675609     360.00000000      43.23207291       1.50546027
       1.20000000       4.83497843     360.00000000      43.23176699       1.50544962
       1.30000000       5.23321199     360.00000000      43.23143533       1.50543807
       1.40000000       5.68825975     360.00000000      43.23102162       1.50542366
       1.50000000       6.08652045     360.00000000      43.23063499       1.50541020
       1.60000000       6.48479520     360.00000000      43.23022304       1.50539585
       1.70000000       6.88308489     360.00000000      43.22978593       1.50538063
       1.80000000       7.28139042     360.00000000      43.22932382       1.50536454
       1.90000000       7.73652635     360.00000000      43.22876084       1.50534494
       2.00000000       8.13486883     360.00000000      43.22824554       1.50532699
       2.10000000       8.53322991     360.00000000      43.22770583       1.50530820
       2.20000000       8.93161044     360.00000000      43.22714191       1.50528856
       2.30000000       9.38683677     360.00000000      43.22646264       1.50526491
       2.40000000       9.78526193     360.00000000      43.22584735       1.50524348
       2.50000000      10.18370920     360.00000000      43.22520855       1.50522123
       2.60000000      10.58217943     360.00000000      43.22454649       1.50519818
       2.70000000      11.03751289     360.00000000      43.22375531       1.50517063
       2.80000000      11.43603516     360.00000000      43.22304403       1.50514586
       2.90000000      11.89143043     360.00000000      43.22219682       1.50511636
       3.00000000      12.29000846     360.00000000      43.22143756       1.50508992
       3.10000000      12.68861371     360.00000000      43.22065647       1.50506272
       3.20000000      13.14410718     360.00000000      43.21972987       1.50503045
       3.30000000      13.54277347     360.00000000      43.21890278       1.50500165
       3.40000000      13.99833895     360.00000000      43.21792394       1.50496756
       3.50000000      14.39706976     360.00000000      43.21705229       1.50493721
       3.60000000      14.85271118     360.00000000      43.21602291       1.50490137
       3.70000000      15.30839475     360.00000000      43.21496718       1.50486460
       3.80000000      15.70723107     360.00000000      43.21403010       1.50483197
       3.90000000      16.16299637     360.00000000      43.21292661       1.50479354
       4.00000000      16.56190554     360.00000000      43.21194898       1.50475950
       4.10000000      17.01775619     360.00000000      43.21079964       1.50471948
       4.20000000      17.47365385     360.00000000      43.20962655       1.50467863
       4.30000000      17.92959950     360.00000000      43.20843028       1.50463697
       4.40000000      18.38559409     360.00000000      43.20721143       1.50459453
       4.50000000      18.78470699     360.00000000      43.20613626       1.50455709
       4.60000000      19.24079561     360.00000000      43.20487692       1.50451323
       4.70000000      19.69693574     360.00000000      43.20359675       1.50446865
       4.80000000      20.15312822     360.00000000      43.20229641       1.50442337
       4.90000000      20.60937388     360.00000000      43.20097651       1.50437741
       5.00000000      21.12263892     360.00000000      43.19945859       1.50432455
       5.10000000      21.57900039     360.00000000      43.19809913       1.50427721
       5.20000000      22.03541744     360.00000000      43.19672219       1.50422926
       5.30000000      22.49189079     360.00000000      43.19532846       1.50418073
       5.40000000      22.94842112     360.00000000      43.19391863       1.50413163
       5.50000000      23.46201180     360.00000000      43.19230258       1.50407536
       5.60000000      23.91866556     360.00000000      43.19086062       1.50402515
       5.70000000      24.43239711     360.00000000      43.18920978       1.50396766
       5.80000000      24.88917700     360.00000000      43.18773890       1.50391644
       5.90000000      25.40305231     360.00000000      43.18605691       1.50385787
       6.00000000      25.91700490     360.00000000      43.18435980       1.50379877
       6.10000000      26.43103546     360.00000000      43.18264864       1.50373918
       6.20000000      26.88808252     360.00000000      43.18112836       1.50368624
       6.30000000      27.40226175     360.00000000      43.17939371       1.50362584
       6.40000000      27.97360089     360.00000000      43.17744131       1.50355785
       6.50000000      28.48794902     360.00000000      43.17568448       1.50349667
       6.60000000      29.00237771     360.00000000      43.17391889       1.50343519
       6.70000000      29.51688732     360.00000000      43.17214562       1.50337344
       6.80000000      30.08859652     360.00000000      43.17015464       1.50330411
       6.90000000      30.60327821     360.00000000      43.16836848       1.50324191
       7.00000000      31.17517974     360.00000000      43.16636542       1.50317215
       7.10000000      31.74718300     360.00000000      43.16435803       1.50310225
       7.20000000      32.31928809     360.00000000      43.16234778       1.50303225
       7.30000000      32.89149506     360.00000000      43.16033613       1.50296220
       7.40000000      33.46380388     360.00000000      43.15832455       1.50289215
       7.50000000      34.03621441     360.00000000      43.15631448       1.50282215
       7.60000000      34.66592853     360.00000000      43.15409360       1.50274482
       7.70000000      35.29576581     360.00000000      43.15187776       1.50266765
       7.80000000      35.86850070     360.00000000      43.14988172       1.50259815
       7.90000000      36.49857129     360.00000000      43.14768088       1.50252151
       8.00000000      37.18601106     360.00000000      43.14527914       1.50243787
       8.10000000      37.81633486     360.00000000      43.14310198       1.50236206
       8.20000000      38.50404945     360.00000000      43.14072995       1.50227946
       8.30000000      39.19190568     360.00000000      43.13837664       1.50219751
       8.40000000      39.87990198     360.00000000      43.13604425       1.50211629
       8.50000000      40.56803667     360.00000000      43.13373493       1.50203587
       8.60000000      41.31362782     360.00000000      43.13124882       1.50194930
       8.70000000      42.05937750     360.00000000      43.12879445       1.50186383
       8.80000000      42.86262869     360.00000000      43.12617745       1.50177270
       8.90000000      43.66605781     360.00000000      43.12360276       1.50168304
       9.00000000      44.46966099     360.00000000      43.12107323       1.50159496
       9.10000000      45.33081887     360.00000000      43.11840442       1.50150202
       9.20000000      46.19216744     360.00000000      43.11579337       1.50141110
       9.30000000      47.11111229     360.00000000      43.11306390       1.50131605
       9.40000000      48.03026161     360.00000000      43.11040650       1.50122351
       9.50000000      49.06448398     360.00000000      43.10748494       1.50112177
       9.60000000      50.04149503     360.00000000      43.10482575       1.50102917
       9.70000000      51.13363937     360.00000000      43.10194015       1.50092869
       9.80000000      52.28350598     360.00000000      43.09901881       1.50082696
       9.90000000      53.54861228     360.00000000      43.09593934       1.50071972
      10.00000000      54.81400734     360.00000000      43.09302253       1.50061815
      10.10000000      56.25222646     360.00000000      43.08988228       1.50050880
      10.20000000      57.74829361     360.00000000      43.08683593       1.50040272
      10.30000000      59.41730227     360.00000000      43.08368850       1.50029312
      10.40000000      61.31687718     360.00000000      43.08042560       1.50017949
      10.50000000      63.50467059     360.00000000      43.07708267       1.50006308
      10.60000000      66.15350895     360.00000000      43.07360194       1.49994187
      10.70000000      69.43627740     360.00000000      43.07009710       1.49981983
      10.80000000      74.15942360     360.00000000      43.06641987       1.49969177
      10.90000000      85.04627993     360.00000000      43.06246601       1.49955409
      11.00000000      90.00000000     360.00000000      43.06231298       1.49954876
      11.10000000      90.00000000     360.00000000      43.06253966       1.49955665
      11.20000000      90.00000000     360.00000000      43.06276631       1.49956455
      11.30000000      90.00000000     360.00000000      43.06299293       1.49957244
      11.40000000      90.00000000     360.00000000      43.06321952       1.49958033
      11.50000000      90.00000000     360.00000000      43.06344608       1.49958822
      11.60000000      90.00000000     360.00000000      43.06367261       1.49959611
      11.70000000      90.00000000     360.00000000      43.06389912       1.49960399
      11.80000000      90.00000000     360.00000000      43.06412559       1.49961188
      11.90000000      90.00000000     360.00000000      43.06435203       1.49961977
      12.00000000      90.00000000     360.00000000      43.06457844       1.49962765
      12.10000000      90.00000000     360.00000000      43.06480482       1.49963553
      12.20000000      90.00000000     360.00000000      43.06503117       1.49964342
      12.30000000      90.00000000     360.00000000      43.06525750       1.49965130
      12.40000000      90.00000000     360.00000000      43.06548379       1.49965918
      12.50000000      90.00000000     360.00000000      43.06571005       1.49966706
      12.60000000      90.00000000     360.00000000      43.06593629       1.49967493
      12.70000000      90.00000000     360.00000000      43.06616249       1.49968281
      12.80000000      90.00000000     360.00000000      43.06638866       1.49969069
      12.90000000      90.00000000     360.00000000      43.06661481       1.49969856
      13.00000000      90.00000000     360.00000000      43.06684092       1.49970644
      13.10000000      90.00000000     360.00000000      43.06706701       1.49971431
      13.20000000      90.00000000     360.00000000      43.06729306       1.49972218
      13.30000000      90.00000000     360.00000000      43.06751909       1.49973005
      13.40000000      90.00000000     360.00000000      43.06774509       1.49973792
      13.50000000      90.00000000     360.00000000      43.06797105       1.49974579
      13.60000000      90.00000000     360.00000000      43.06819699       1.49975366
      13.70000000      90.00000000     360.00000000      43.06842290       1.49976153
      13.80000000      90.00000000     360.00000000      43.06864878       1.49976939
      13.90000000      90.00000000     360.00000000      43.06887463       1.49977726
      14.00000000      90.00000000     360.00000000      43.06910045       1.49978512
      14.10000000      90.00000000     360.00000000      43.06932624       1.49979298
      14.20000000      90.00000000     360.00000000      43.06955200       1.49980084
      14.30000000      90.00000000     360.00000000      43.06977773       1.49980870
      14.40000000      90.00000000     360.00000000      43.07000343       1.49981656
      14.50000000      90.00000000     360.00000000      43.07022910       1.49982442
      14.60000000      90.00000000     360.00000000      43.07045474       1.49983228
      14.70000000      90.00000000     360.00000000      43.07068036       1.49984014
      14.80000000      90.00000000     360.00000000      43.07090594       1.49984799
      14.90000000      90.00000000     360.00000000      43.07113150       1.49985585
      15.00000000      90.00000000     360.00000000      43.07135702       1.49986370
      15.10000000      90.00000000     360.00000000      43.07158252       1.49987155
      15.20000000      90.00000000     360.00000000      43.07180798       1.49987940
      15.30000000      90.00000000     360.00000000      43.07203342       1.49988725
      15.40000000      90.00000000     360.00000000      43.07225883       1.49989510
      15.50000000      90.00000000     360.00000000      43.07248421       1.49990295
      15.60000000      90.00000000     360.00000000      43.07270955       1.49991080
      15.70000000      90.00000000     360.00000000      43.07293487       1.49991864
      15.80000000      90.00000000     360.00000000      43.07316016       1.49992649
      15.90000000      90.00000000     360.00000000      43.07338543       1.49993433
      16.00000000      90.00000000     360.00000000      43.07361066       1.49994218
      16.10000000      90.00000000     360.00000000      43.07383586       1.49995002
      16.20000000      90.00000000     360.00000000      43.07406103       1.49995786
      16.30000000      90.00000000     360.00000000      43.07428618       1.49996570
      16.40000000      90.00000000     360.00000000      43.07451129       1.49997354
      16.50000000      90.00000000     360.00000000      43.07473638       1.49998138
      16.60000000      90.00000000     360.00000000      43.07496143       1.49998922
      16.70000000      90.00000000     360.00000000      43.07518646       1.49999705
      16.80000000      90.00000000     360.00000000      43.07541146       1.50000489
      16.90000000      90.00000000     360.00000000      43.07563643       1.50001272
      17.00000000      90.00000000     360.00000000      43.07586137       1.50002055
      17.10000000      90.00000000     360.00000000      43.07608628       1.50002839
      17.20000000      90.00000000     360.00000000      43.07631116       1.50003622
      17.30000000      90.00000000     360.00000000      43.07653601       1.50004405
      17.40000000      90.00000000     360.00000000      43.07676083       1.50005188
      17.50000000      90.00000000     360.00000000      43.07698563       1.50005970
      17.60000000      90.00000000     360.00000000      43.07721039       1.50006753
      17.70000000      90.00000000     360.00000000      43.07743513       1.50007536
      17.80000000      90.00000000     360.00000000      43.07765983       1.50008318
      17.90000000      90.00000000     360.00000000      43.07788451       1.50009100
      18.00000000      90.00000000     360.00000000      43.07810916       1.50009883
      18.10000000      90.00000000     360.00000000      43.07833378       1.50010665
      18.20000000      90.00000000     360.00000000      43.07855837       1.50011447
      18.30000000      90.00000000     360.00000000      43.07878293       1.50012229
      18.40000000      90.00000000     360.00000000      43.07900746       1.50013011
      18.50000000      90.00000000     360.00000000      43.07923196       1.50013793
      18.60000000      90.00000000     360.00000000      43.07945644       1.50014574
      18.70000000      90.00000000     360.00000000      43.07968088       1.50015356
      18.80000000      90.00000000     360.00000000      43.07990530       1.50016137
      18.90000000      90.00000000     360.00000000      43.08012969       1.50016919
      19.00000000      90.00000000     360.00000000      43.08035404       1.50017700
      19.10000000      90.00000000     360.00000000      43.08057837       1.50018481
      19.20000000      90.00000000     360.00000000      43.08080267       1.50019262
      19.30000000      90.00000000     360.00000000      43.08102694       1.50020043
      19.40000000      90.00000000     360.00000000      43.08125119       1.50020824
      19.50000000      90.00000000     360.00000000      43.08147540       1.50021605
      19.60000000      90.00000000     360.00000000      43.08169959       1.50022386
      19.70000000      90.00000000     360.00000000      43.08192374       1.50023166
      19.80000000      90.00000000     360.00000000      43.08214787       1.50023947
      19.90000000      90.00000000     360.00000000      43.08237197       1.50024727
      20.00000000      90.00000000     360.00000000      43.08259604       1.50025507
      20.10000000      90.00000000     360.00000000      43.08282008       1.50026287
      20.20000000      90.00000000     360.00000000      43.08304409       1.50027068
      20.30000000      90.00000000     360.00000000      43.08326807       1.50027848
      20.40000000      90.00000000     360.00000000      43.08349202       1.50028627
      20.50000000      90.00000000     360.00000000      43.08371595       1.50029407
      20.60000000      90.00000000     360.00000000      43.08393985       1.50030187
      20.70000000      90.00000000     360.00000000      43.08416371       1.50030966
      20.80000000      90.00000000     360.00000000      43.08438755       1.50031746
      20.90000000      90.00000000     360.00000000      43.08461136       1.50032525
      21.00000000      90.00000000     360.00000000      43.08483514       1.50033304
      21.10000000      90.00000000     360.00000000      43.08505890       1.50034084
      21.20000000      90.00000000     360.00000000      43.08528262       1.50034863
      21.30000000      90.00000000     360.00000000      43.08550631       1.50035642
      21.40000000      90.00000000     360.00000000      43.08572998       1.50036421
      21.50000000      90.00000000     360.00000000      43.08595362       1.50037199
      21.60000000      90.00000000     360.00000000      43.08617723       1.50037978
      21.70000000      90.00000000     360.00000000      43.08640081       1.50038757
      21.80000000      90.00000000     360.00000000      43.08662436       1.50039535
      21.90000000      90.00000000     360.00000000      43.08684788       1.50040313
      22.00000000      90.00000000     360.00000000      43.08707138       1.50041092
      22.10000000      90.00000000     360.00000000      43.08729484       1.50041870
      22.20000000      90.00000000     360.00000000      43.08751828       1.50042648
      22.30000000      90.00000000     360.00000000      43.08774169       1.50043426
      22.40000000      90.00000000     360.00000000      43.08796507       1.50044204
      22.50000000      90.00000000     360.00000000      43.08818842       1.50044982
      22.60000000      90.00000000     360.00000000      43.08841174       1.50045759
      22.70000000      90.00000000     360.00000000      43.08863504       1.50046537
      22.80000000      90.00000000     360.00000000      43.08885830       1.50047314
      22.90000000      90.00000000     360.00000000      43.08908154       1.50048092
      23.00000000      90.00000000     360.00000000      43.08930475       1.50048869
