 # applied field (T), theta (degree), phi (degree), abs [muB/unitcell], abs [T]
       0.00000000       0.00000000       0.00000000      43.66544839       1.50250367
       0.10000000       0.85717041     360.00000000      43.66541869       1.50250265
       0.20000000       1.71434478     360.00000000      43.66532964       1.50249959
       0.30000000       2.62863291     360.00000000      43.66516871       1.50249405
       0.40000000       3.48582807     360.00000000      43.66495747       1.50248678
       0.50000000       4.34303927     360.00000000      43.66468780       1.50247750
       0.60000000       5.20027039     360.00000000      43.66436024       1.50246623
       0.70000000       6.11463659     360.00000000      43.66394604       1.50245198
       0.80000000       6.97192090     360.00000000      43.66350079       1.50243666
       0.90000000       7.88635245     360.00000000      43.66296245       1.50241813
       1.00000000       8.74370569     360.00000000      43.66240331       1.50239889
       1.10000000       9.65821905     360.00000000      43.66174541       1.50237626
       1.20000000      10.51565627     360.00000000      43.66107717       1.50235326
       1.30000000      11.43026709     360.00000000      43.66030532       1.50232670
       1.40000000      12.34493408     360.00000000      43.65947705       1.50229820
       1.50000000      13.25966102     360.00000000      43.65859425       1.50226783
       1.60000000      14.17445153     360.00000000      43.65765893       1.50223564
       1.70000000      15.08930905     360.00000000      43.65667321       1.50220172
       1.80000000      16.00423688     360.00000000      43.65563934       1.50216615
       1.90000000      16.97639209     360.00000000      43.65448628       1.50212647
       2.00000000      17.89147465     360.00000000      43.65336043       1.50208773
       2.10000000      18.86380097     360.00000000      43.65211485       1.50204487
       2.20000000      19.83622009     360.00000000      43.65082614       1.50200053
       2.30000000      20.80873481     360.00000000      43.64949761       1.50195482
       2.40000000      21.83853021     360.00000000      43.64804598       1.50190487
       2.50000000      22.81124958     360.00000000      43.64664610       1.50185670
       2.60000000      23.84126686     360.00000000      43.64512642       1.50180440
       2.70000000      24.87140153     360.00000000      43.64357799       1.50175112
       2.80000000      25.90165533     360.00000000      43.64200526       1.50169701
       2.90000000      26.98924615     360.00000000      43.64031758       1.50163894
       3.00000000      28.07697304     360.00000000      43.63861269       1.50158027
       3.10000000      29.16483688     360.00000000      43.63689599       1.50152120
       3.20000000      30.31007757     360.00000000      43.63507559       1.50145856
       3.30000000      31.45547129     360.00000000      43.63325389       1.50139588
       3.40000000      32.65827348     360.00000000      43.63133993       1.50133002
       3.50000000      33.86124392     360.00000000      43.62943812       1.50126458
       3.60000000      35.06438135     360.00000000      43.62755547       1.50119980
       3.70000000      36.32496484     360.00000000      43.62560423       1.50113266
       3.80000000      37.64301759     360.00000000      43.62359577       1.50106355
       3.90000000      39.01856278     360.00000000      43.62154342       1.50099293
       4.00000000      40.39431526     360.00000000      43.61955069       1.50092436
       4.10000000      41.82758689     360.00000000      43.61754048       1.50085519
       4.20000000      43.31839880     360.00000000      43.61553016       1.50078601
       4.30000000      44.86677117     360.00000000      43.61353853       1.50071748
       4.40000000      46.53006780     360.00000000      43.61151170       1.50064774
       4.50000000      48.25097992     360.00000000      43.60955353       1.50058036
       4.60000000      50.02952253     360.00000000      43.60768576       1.50051609
       4.70000000      51.98045520     360.00000000      43.60581355       1.50045167
       4.80000000      54.04646046     360.00000000      43.60404420       1.50039079
       4.90000000      56.22756982     360.00000000      43.60241443       1.50033471
       5.00000000      58.69601508     360.00000000      43.60084296       1.50028064
       5.10000000      61.33706958     360.00000000      43.59948044       1.50023375
       5.20000000      64.38044105     360.00000000      43.59826817       1.50019204
       5.30000000      67.94109160     360.00000000      43.59727267       1.50015778
       5.40000000      72.30631148     360.00000000      43.59654158       1.50013263
       5.50000000      78.45278251     360.00000000      43.59611098       1.50011781
       5.60000000      90.00000000     360.00000000      43.59609050       1.50011711
       5.70000000      90.00000000     360.00000000      43.59632817       1.50012528
       5.80000000      90.00000000     360.00000000      43.59656581       1.50013346
       5.90000000      90.00000000     360.00000000      43.59680343       1.50014164
       6.00000000      90.00000000     360.00000000      43.59704102       1.50014981
       6.10000000      90.00000000     360.00000000      43.59727859       1.50015799
       6.20000000      90.00000000     360.00000000      43.59751612       1.50016616
       6.30000000      90.00000000     360.00000000      43.59775364       1.50017433
       6.40000000      90.00000000     360.00000000      43.59799113       1.50018251
       6.50000000      90.00000000     360.00000000      43.59822859       1.50019068
       6.60000000      90.00000000     360.00000000      43.59846603       1.50019885
       6.70000000      90.00000000     360.00000000      43.59870344       1.50020702
       6.80000000      90.00000000     360.00000000      43.59894083       1.50021518
       6.90000000      90.00000000     360.00000000      43.59917819       1.50022335
       7.00000000      90.00000000     360.00000000      43.59941553       1.50023152
       7.10000000      90.00000000     360.00000000      43.59965284       1.50023968
       7.20000000      90.00000000     360.00000000      43.59989013       1.50024785
       7.30000000      90.00000000     360.00000000      43.60012740       1.50025601
       7.40000000      90.00000000     360.00000000      43.60036464       1.50026418
       7.50000000      90.00000000     360.00000000      43.60060186       1.50027234
       7.60000000      90.00000000     360.00000000      43.60083905       1.50028050
       7.70000000      90.00000000     360.00000000      43.60107622       1.50028866
       7.80000000      90.00000000     360.00000000      43.60131337       1.50029682
       7.90000000      90.00000000     360.00000000      43.60155050       1.50030498
       8.00000000      90.00000000     360.00000000      43.60178760       1.50031314
       8.10000000      90.00000000     360.00000000      43.60202468       1.50032130
       8.20000000      90.00000000     360.00000000      43.60226173       1.50032946
       8.30000000      90.00000000     360.00000000      43.60249877       1.50033761
       8.40000000      90.00000000     360.00000000      43.60273578       1.50034577
       8.50000000      90.00000000     360.00000000      43.60297277       1.50035392
       8.60000000      90.00000000     360.00000000      43.60320973       1.50036208
       8.70000000      90.00000000     360.00000000      43.60344668       1.50037023
       8.80000000      90.00000000     360.00000000      43.60368360       1.50037838
       8.90000000      90.00000000     360.00000000      43.60392050       1.50038653
       9.00000000      90.00000000     360.00000000      43.60415738       1.50039468
       9.10000000      90.00000000     360.00000000      43.60439423       1.50040283
       9.20000000      90.00000000     360.00000000      43.60463107       1.50041098
       9.30000000      90.00000000     360.00000000      43.60486788       1.50041913
       9.40000000      90.00000000     360.00000000      43.60510467       1.50042728
       9.50000000      90.00000000     360.00000000      43.60534144       1.50043543
       9.60000000      90.00000000     360.00000000      43.60557819       1.50044357
       9.70000000      90.00000000     360.00000000      43.60581492       1.50045172
       9.80000000      90.00000000     360.00000000      43.60605162       1.50045986
       9.90000000      90.00000000     360.00000000      43.60628831       1.50046801
      10.00000000      90.00000000     360.00000000      43.60652497       1.50047615
      10.10000000      90.00000000     360.00000000      43.60676161       1.50048429
      10.20000000      90.00000000     360.00000000      43.60699823       1.50049244
      10.30000000      90.00000000     360.00000000      43.60723483       1.50050058
      10.40000000      90.00000000     360.00000000      43.60747141       1.50050872
      10.50000000      90.00000000     360.00000000      43.60770797       1.50051686
      10.60000000      90.00000000     360.00000000      43.60794451       1.50052500
      10.70000000      90.00000000     360.00000000      43.60818103       1.50053313
      10.80000000      90.00000000     360.00000000      43.60841753       1.50054127
      10.90000000      90.00000000     360.00000000      43.60865400       1.50054941
      11.00000000      90.00000000     360.00000000      43.60889046       1.50055755
      11.10000000      90.00000000     360.00000000      43.60912689       1.50056568
      11.20000000      90.00000000     360.00000000      43.60936331       1.50057382
      11.30000000      90.00000000     360.00000000      43.60959970       1.50058195
      11.40000000      90.00000000     360.00000000      43.60983608       1.50059008
      11.50000000      90.00000000     360.00000000      43.61007243       1.50059822
      11.60000000      90.00000000     360.00000000      43.61030876       1.50060635
      11.70000000      90.00000000     360.00000000      43.61054508       1.50061448
      11.80000000      90.00000000     360.00000000      43.61078137       1.50062261
      11.90000000      90.00000000     360.00000000      43.61101764       1.50063074
      12.00000000      90.00000000     360.00000000      43.61125389       1.50063887
      12.10000000      90.00000000     360.00000000      43.61149013       1.50064700
      12.20000000      90.00000000     360.00000000      43.61172634       1.50065513
      12.30000000      90.00000000     360.00000000      43.61196253       1.50066325
      12.40000000      90.00000000     360.00000000      43.61219870       1.50067138
      12.50000000      90.00000000     360.00000000      43.61243486       1.50067951
      12.60000000      90.00000000     360.00000000      43.61267099       1.50068763
      12.70000000      90.00000000     360.00000000      43.61290710       1.50069576
      12.80000000      90.00000000     360.00000000      43.61314319       1.50070388
      12.90000000      90.00000000     360.00000000      43.61337927       1.50071200
      13.00000000      90.00000000     360.00000000      43.61361532       1.50072013
      13.10000000      90.00000000     360.00000000      43.61385135       1.50072825
      13.20000000      90.00000000     360.00000000      43.61408737       1.50073637
      13.30000000      90.00000000     360.00000000      43.61432336       1.50074449
      13.40000000      90.00000000     360.00000000      43.61455933       1.50075261
      13.50000000      90.00000000     360.00000000      43.61479529       1.50076073
      13.60000000      90.00000000     360.00000000      43.61503122       1.50076885
      13.70000000      90.00000000     360.00000000      43.61526714       1.50077696
      13.80000000      90.00000000     360.00000000      43.61550303       1.50078508
      13.90000000      90.00000000     360.00000000      43.61573891       1.50079320
      14.00000000      90.00000000     360.00000000      43.61597476       1.50080131
      14.10000000      90.00000000     360.00000000      43.61621060       1.50080943
      14.20000000      90.00000000     360.00000000      43.61644641       1.50081754
      14.30000000      90.00000000     360.00000000      43.61668221       1.50082566
      14.40000000      90.00000000     360.00000000      43.61691798       1.50083377
      14.50000000      90.00000000     360.00000000      43.61715374       1.50084188
      14.60000000      90.00000000     360.00000000      43.61738948       1.50084999
      14.70000000      90.00000000     360.00000000      43.61762519       1.50085810
      14.80000000      90.00000000     360.00000000      43.61786089       1.50086621
      14.90000000      90.00000000     360.00000000      43.61809657       1.50087432
      15.00000000      90.00000000     360.00000000      43.61833223       1.50088243
      15.10000000      90.00000000     360.00000000      43.61856786       1.50089054
      15.20000000      90.00000000     360.00000000      43.61880348       1.50089865
      15.30000000      90.00000000     360.00000000      43.61903908       1.50090675
      15.40000000      90.00000000     360.00000000      43.61927465       1.50091486
      15.50000000      90.00000000     360.00000000      43.61951021       1.50092297
      15.60000000      90.00000000     360.00000000      43.61974574       1.50093107
      15.70000000      90.00000000     360.00000000      43.61998126       1.50093917
      15.80000000      90.00000000     360.00000000      43.62021675       1.50094728
      15.90000000      90.00000000     360.00000000      43.62045223       1.50095538
      16.00000000      90.00000000     360.00000000      43.62068768       1.50096348
      16.10000000      90.00000000     360.00000000      43.62092311       1.50097158
      16.20000000      90.00000000     360.00000000      43.62115853       1.50097968
      16.30000000      90.00000000     360.00000000      43.62139392       1.50098778
      16.40000000      90.00000000     360.00000000      43.62162929       1.50099588
      16.50000000      90.00000000     360.00000000      43.62186465       1.50100398
      16.60000000      90.00000000     360.00000000      43.62209998       1.50101208
      16.70000000      90.00000000     360.00000000      43.62233529       1.50102017
      16.80000000      90.00000000     360.00000000      43.62257058       1.50102827
      16.90000000      90.00000000     360.00000000      43.62280585       1.50103637
      17.00000000      90.00000000     360.00000000      43.62304111       1.50104446
      17.10000000      90.00000000     360.00000000      43.62327634       1.50105256
      17.20000000      90.00000000     360.00000000      43.62351155       1.50106065
      17.30000000      90.00000000     360.00000000      43.62374674       1.50106874
      17.40000000      90.00000000     360.00000000      43.62398191       1.50107683
      17.50000000      90.00000000     360.00000000      43.62421707       1.50108493
      17.60000000      90.00000000     360.00000000      43.62445220       1.50109302
      17.70000000      90.00000000     360.00000000      43.62468731       1.50110111
      17.80000000      90.00000000     360.00000000      43.62492241       1.50110920
      17.90000000      90.00000000     360.00000000      43.62515748       1.50111728
      18.00000000      90.00000000     360.00000000      43.62539254       1.50112537
      18.10000000      90.00000000     360.00000000      43.62562757       1.50113346
      18.20000000      90.00000000     360.00000000      43.62586259       1.50114155
      18.30000000      90.00000000     360.00000000      43.62609758       1.50114963
      18.40000000      90.00000000     360.00000000      43.62633256       1.50115772
      18.50000000      90.00000000     360.00000000      43.62656752       1.50116580
      18.60000000      90.00000000     360.00000000      43.62680245       1.50117389
      18.70000000      90.00000000     360.00000000      43.62703737       1.50118197
      18.80000000      90.00000000     360.00000000      43.62727227       1.50119005
      18.90000000      90.00000000     360.00000000      43.62750715       1.50119814
      19.00000000      90.00000000     360.00000000      43.62774201       1.50120622
      19.10000000      90.00000000     360.00000000      43.62797685       1.50121430
      19.20000000      90.00000000     360.00000000      43.62821167       1.50122238
      19.30000000      90.00000000     360.00000000      43.62844647       1.50123046
      19.40000000      90.00000000     360.00000000      43.62868125       1.50123854
      19.50000000      90.00000000     360.00000000      43.62891601       1.50124661
      19.60000000      90.00000000     360.00000000      43.62915075       1.50125469
      19.70000000      90.00000000     360.00000000      43.62938557       1.50126277
      19.80000000      90.00000000     360.00000000      43.62962026       1.50127085
      19.90000000      90.00000000     360.00000000      43.62985494       1.50127892
      20.00000000      90.00000000     360.00000000      43.63008960       1.50128700
      20.10000000      90.00000000     360.00000000      43.63032424       1.50129507
      20.20000000      90.00000000     360.00000000      43.63055885       1.50130314
      20.30000000      90.00000000     360.00000000      43.63079345       1.50131122
      20.40000000      90.00000000     360.00000000      43.63102803       1.50131929
      20.50000000      90.00000000     360.00000000      43.63126259       1.50132736
      20.60000000      90.00000000     360.00000000      43.63149713       1.50133543
      20.70000000      90.00000000     360.00000000      43.63173165       1.50134350
      20.80000000      90.00000000     360.00000000      43.63196615       1.50135157
      20.90000000      90.00000000     360.00000000      43.63220063       1.50135964
      21.00000000      90.00000000     360.00000000      43.63243509       1.50136770
      21.10000000      90.00000000     360.00000000      43.63266954       1.50137577
      21.20000000      90.00000000     360.00000000      43.63290396       1.50138384
      21.30000000      90.00000000     360.00000000      43.63313836       1.50139190
      21.40000000      90.00000000     360.00000000      43.63337274       1.50139997
      21.50000000      90.00000000     360.00000000      43.63360711       1.50140803
      21.60000000      90.00000000     360.00000000      43.63384146       1.50141610
      21.70000000      90.00000000     360.00000000      43.63407579       1.50142416
      21.80000000      90.00000000     360.00000000      43.63431010       1.50143222
      21.90000000      90.00000000     360.00000000      43.63454439       1.50144028
      22.00000000      90.00000000     360.00000000      43.63477866       1.50144834
      22.10000000      90.00000000     360.00000000      43.63501291       1.50145640
      22.20000000      90.00000000     360.00000000      43.63524714       1.50146446
      22.30000000      90.00000000     360.00000000      43.63548136       1.50147252
      22.40000000      90.00000000     360.00000000      43.63571555       1.50148058
      22.50000000      90.00000000     360.00000000      43.63594972       1.50148864
      22.60000000      90.00000000     360.00000000      43.63618387       1.50149670
      22.70000000      90.00000000     360.00000000      43.63641801       1.50150475
      22.80000000      90.00000000     360.00000000      43.63665212       1.50151281
      22.90000000      90.00000000     360.00000000      43.63688622       1.50152086
      23.00000000      90.00000000     360.00000000      43.63712029       1.50152892
