 # applied field (T), theta (degree), phi (degree), abs for RE 1-2
     0.00000   166.98490   315.00000     0.09348   166.98490   225.00000     0.09348
     0.10000   167.91448   308.70381     0.09301   165.77766   219.67440     0.09303
     0.20000   168.64603   301.85680     0.09260   164.55784   215.45204     0.09264
     0.30000   169.23406   293.60665     0.09222   163.19404   211.65100     0.09228
     0.40000   169.58420   284.54020     0.09189   161.78203   208.43007     0.09197
     0.50000   169.66522   275.02947     0.09161   160.33751   205.67909     0.09171
     0.60000   169.46548   265.57292     0.09139   158.87274   203.30965     0.09149
     0.70000   168.99654   256.65302     0.09121   157.39745   201.25153     0.09131
     0.80000   168.28868   248.60453     0.09109   155.91944   199.44913     0.09117
     0.90000   167.38152   241.57117     0.09102   154.44503   197.85827     0.09108
     1.00000   166.31542   235.54421     0.09100   152.97946   196.44374     0.09101
     1.10000   165.12637   230.42857     0.09104   151.52705   195.17722     0.09098
     1.20000   163.76526   225.85663     0.09113   150.00540   193.97189     0.09099
     1.30000   162.32756   222.01393     0.09128   148.50613   192.88508     0.09103
     1.40000   160.92046   218.93814     0.09147   147.11552   191.95129     0.09109
     1.50000   159.39200   216.14889     0.09173   145.66804   191.04635     0.09117
     1.60000   157.74995   213.63084     0.09205   144.17069   190.17164     0.09130
     1.70000   156.18061   211.58141     0.09241   142.78665   189.40853     0.09143
     1.80000   154.51600   209.70110     0.09283   141.35970   188.66294     0.09159
     1.90000   152.85200   208.06352     0.09331   139.97124   187.97049     0.09176
     2.00000   151.19469   206.62677     0.09383   138.62244   187.32411     0.09195
     2.10000   149.46131   205.29271     0.09443   137.24437   186.68726     0.09216
     2.20000   147.74518   204.11389     0.09507   135.91205   186.08888     0.09237
     2.30000   146.04981   203.06557     0.09575   134.62610   185.52385     0.09259
     2.40000   144.29372   202.08194     0.09650   133.32418   184.96217     0.09283
     2.50000   142.48324   201.16084     0.09733   132.01390   184.40381     0.09308
     2.60000   140.78691   200.37306     0.09815   130.81833   183.89465     0.09331
     2.70000   138.96268   199.59393     0.09908   129.56442   183.36152     0.09357
     2.80000   137.17684   198.89228     0.10004   128.37245   182.84935     0.09382
     2.90000   135.35373   198.23000     0.10106   127.19221   182.33448     0.09408
     3.00000   133.49858   197.60549     0.10215   126.03100   181.81625     0.09435
     3.10000   131.68851   197.03920     0.10324   124.93990   181.31308     0.09462
     3.20000   129.78171   196.48255     0.10444   123.83444   180.78525     0.09492
     3.30000   127.92474   195.97647     0.10564   122.80565   180.27013     0.09523
     3.40000   125.98241   195.48031     0.10692   121.77844   179.73043     0.09558
     3.50000   123.96344   194.99684     0.10829   120.76416   179.16748     0.09598
     3.60000   121.93856   194.54186     0.10968   119.80185   178.60006     0.09645
     3.70000   119.78778   194.08723     0.11117   118.83344   177.99664     0.09703
     3.80000   117.58198   193.64851     0.11271   117.89178   177.37872     0.09773
     3.90000   115.26934   193.21470     0.11433   116.94639   176.73697     0.09863
     4.00000   112.80413   192.77774     0.11603   115.96438   176.06735     0.09979
     4.10000   110.14625   192.33155     0.11784   114.90388   175.37305     0.10131
     4.20000   107.20928   191.86292     0.11978   113.68234   174.65476     0.10336
     4.30000   103.86936   191.35346     0.12191   112.16105   173.92075     0.10616
     4.40000    99.87978   190.76560     0.12429   110.05907   173.18423     0.11019
     4.50000    94.54498   189.98936     0.12721   106.59731   172.45679     0.11658
     4.60000    83.50401   188.26520     0.13213    96.49599   171.73480     0.13213
     4.70000    83.49912   188.27155     0.13201    96.50088   171.72845     0.13201
     4.80000    83.49423   188.27791     0.13189    96.50577   171.72209     0.13189
     4.90000    83.48932   188.28428     0.13177    96.51068   171.71572     0.13177
     5.00000    83.48440   188.29066     0.13165    96.51560   171.70934     0.13165
     5.10000    83.47948   188.29706     0.13153    96.52052   171.70294     0.13153
     5.20000    83.47455   188.30346     0.13140    96.52545   171.69654     0.13140
     5.30000    83.46961   188.30988     0.13128    96.53039   171.69012     0.13128
     5.40000    83.46466   188.31630     0.13116    96.53534   171.68370     0.13116
     5.50000    83.45970   188.32274     0.13104    96.54030   171.67726     0.13104
     5.60000    83.45474   188.32919     0.13092    96.54526   171.67081     0.13092
     5.70000    83.44976   188.33565     0.13080    96.55024   171.66435     0.13080
     5.80000    83.44478   188.34213     0.13067    96.55522   171.65787     0.13067
     5.90000    83.43979   188.34861     0.13055    96.56021   171.65139     0.13055
     6.00000    83.43479   188.35510     0.13043    96.56521   171.64490     0.13043
     6.10000    83.42978   188.36161     0.13031    96.57022   171.63839     0.13031
     6.20000    83.42477   188.36813     0.13019    96.57523   171.63187     0.13019
     6.30000    83.41974   188.37466     0.13007    96.58026   171.62534     0.13007
     6.40000    83.41471   188.38120     0.12995    96.58529   171.61880     0.12995
     6.50000    83.40966   188.38775     0.12983    96.59034   171.61225     0.12983
     6.60000    83.40461   188.39432     0.12970    96.59539   171.60568     0.12970
     6.70000    83.39955   188.40089     0.12958    96.60045   171.59911     0.12958
     6.80000    83.39448   188.40748     0.12946    96.60552   171.59252     0.12946
     6.90000    83.38940   188.41408     0.12934    96.61060   171.58592     0.12934
     7.00000    83.38432   188.42069     0.12922    96.61568   171.57931     0.12922
     7.10000    83.37922   188.42731     0.12910    96.62078   171.57269     0.12910
     7.20000    83.37411   188.43394     0.12898    96.62589   171.56606     0.12898
     7.30000    83.36900   188.44059     0.12885    96.63100   171.55941     0.12885
     7.40000    83.36388   188.44725     0.12873    96.63612   171.55275     0.12873
     7.50000    83.35875   188.45392     0.12861    96.64125   171.54608     0.12861
     7.60000    83.35361   188.46060     0.12849    96.64639   171.53940     0.12849
     7.70000    83.34846   188.46729     0.12837    96.65154   171.53271     0.12837
     7.80000    83.34330   188.47400     0.12825    96.65670   171.52600     0.12825
     7.90000    83.33813   188.48072     0.12813    96.66187   171.51928     0.12813
     8.00000    83.33295   188.48744     0.12801    96.66705   171.51256     0.12801
     8.10000    83.32777   188.49419     0.12788    96.67223   171.50581     0.12788
     8.20000    83.32257   188.50094     0.12776    96.67743   171.49906     0.12776
     8.30000    83.31737   188.50771     0.12764    96.68263   171.49229     0.12764
     8.40000    83.31216   188.51448     0.12752    96.68784   171.48552     0.12752
     8.50000    83.30693   188.52127     0.12740    96.69307   171.47873     0.12740
     8.60000    83.30170   188.52808     0.12728    96.69830   171.47192     0.12728
     8.70000    83.29646   188.53489     0.12716    96.70354   171.46511     0.12716
     8.80000    83.29121   188.54172     0.12704    96.70879   171.45828     0.12704
     8.90000    83.28595   188.54856     0.12692    96.71405   171.45144     0.12692
     9.00000    83.28068   188.55541     0.12680    96.71932   171.44459     0.12680
     9.10000    83.27541   188.56227     0.12667    96.72459   171.43773     0.12667
     9.20000    83.27012   188.56915     0.12655    96.72988   171.43085     0.12655
     9.30000    83.26482   188.57604     0.12643    96.73518   171.42396     0.12643
     9.40000    83.25952   188.58294     0.12631    96.74048   171.41706     0.12631
     9.50000    83.25420   188.58985     0.12619    96.74580   171.41015     0.12619
     9.60000    83.24888   188.59678     0.12607    96.75112   171.40322     0.12607
     9.70000    83.24354   188.60372     0.12595    96.75646   171.39628     0.12595
     9.80000    83.23820   188.61067     0.12583    96.76180   171.38933     0.12583
     9.90000    83.23284   188.61763     0.12571    96.76716   171.38237     0.12571
    10.00000    83.22748   188.62461     0.12559    96.77252   171.37539     0.12559
    10.10000    83.22211   188.63160     0.12546    96.77789   171.36840     0.12546
    10.20000    83.21673   188.63860     0.12534    96.78327   171.36140     0.12534
    10.30000    83.21133   188.64562     0.12522    96.78867   171.35438     0.12522
    10.40000    83.20593   188.65264     0.12510    96.79407   171.34736     0.12510
    10.50000    83.20052   188.65969     0.12498    96.79948   171.34031     0.12498
    10.60000    83.19510   188.66674     0.12486    96.80490   171.33326     0.12486
    10.70000    83.18967   188.67381     0.12474    96.81033   171.32619     0.12474
    10.80000    83.18423   188.68089     0.12462    96.81577   171.31911     0.12462
    10.90000    83.17878   188.68798     0.12450    96.82122   171.31202     0.12450
    11.00000    83.17332   188.69508     0.12438    96.82668   171.30492     0.12438
    11.10000    83.16785   188.70220     0.12426    96.83215   171.29780     0.12426
    11.20000    83.16237   188.70934     0.12414    96.83763   171.29066     0.12414
    11.30000    83.15688   188.71648     0.12402    96.84312   171.28352     0.12402
    11.40000    83.15138   188.72364     0.12389    96.84862   171.27636     0.12389
    11.50000    83.14587   188.73081     0.12377    96.85413   171.26919     0.12377
    11.60000    83.14035   188.73800     0.12365    96.85965   171.26200     0.12365
    11.70000    83.13482   188.74520     0.12353    96.86518   171.25480     0.12353
    11.80000    83.12928   188.75241     0.12341    96.87072   171.24759     0.12341
    11.90000    83.12373   188.75963     0.12329    96.87627   171.24037     0.12329
    12.00000    83.11817   188.76687     0.12317    96.88183   171.23313     0.12317
    12.10000    83.11260   188.77412     0.12305    96.88740   171.22588     0.12305
    12.20000    83.10702   188.78139     0.12293    96.89298   171.21861     0.12293
    12.30000    83.10143   188.78867     0.12281    96.89857   171.21133     0.12281
    12.40000    83.09583   188.79596     0.12269    96.90417   171.20404     0.12269
    12.50000    83.09022   188.80327     0.12257    96.90978   171.19673     0.12257
    12.60000    83.08460   188.81059     0.12245    96.91540   171.18941     0.12245
    12.70000    83.07897   188.81792     0.12233    96.92103   171.18208     0.12233
    12.80000    83.07332   188.82527     0.12221    96.92668   171.17473     0.12221
    12.90000    83.06767   188.83263     0.12209    96.93233   171.16737     0.12209
    13.00000    83.06201   188.84001     0.12197    96.93799   171.15999     0.12197
    13.10000    83.05634   188.84739     0.12184    96.94366   171.15261     0.12184
    13.20000    83.05065   188.85480     0.12172    96.94935   171.14520     0.12172
    13.30000    83.04496   188.86221     0.12160    96.95504   171.13779     0.12160
    13.40000    83.03925   188.86965     0.12148    96.96075   171.13035     0.12148
    13.50000    83.03354   188.87709     0.12136    96.96646   171.12291     0.12136
    13.60000    83.02781   188.88455     0.12124    96.97219   171.11545     0.12124
    13.70000    83.02208   188.89202     0.12112    96.97792   171.10798     0.12112
    13.80000    83.01633   188.89951     0.12100    96.98367   171.10049     0.12100
    13.90000    83.01057   188.90701     0.12088    96.98943   171.09299     0.12088
    14.00000    83.00481   188.91453     0.12076    96.99519   171.08547     0.12076
    14.10000    82.99903   188.92206     0.12064    97.00097   171.07794     0.12064
    14.20000    82.99324   188.92960     0.12052    97.00676   171.07040     0.12052
    14.30000    82.98744   188.93716     0.12040    97.01256   171.06284     0.12040
    14.40000    82.98163   188.94473     0.12028    97.01837   171.05527     0.12028
    14.50000    82.97581   188.95232     0.12016    97.02419   171.04768     0.12016
    14.60000    82.96997   188.95992     0.12004    97.03003   171.04008     0.12004
    14.70000    82.96413   188.96754     0.11992    97.03587   171.03246     0.11992
    14.80000    82.95828   188.97517     0.11980    97.04172   171.02483     0.11980
    14.90000    82.95241   188.98281     0.11968    97.04759   171.01719     0.11968
    15.00000    82.94653   188.99047     0.11956    97.05347   171.00953     0.11956
    15.10000    82.94065   188.99815     0.11944    97.05935   171.00185     0.11944
    15.20000    82.93475   189.00584     0.11932    97.06525   170.99416     0.11932
    15.30000    82.92884   189.01354     0.11920    97.07116   170.98646     0.11920
    15.40000    82.92292   189.02126     0.11908    97.07708   170.97874     0.11908
    15.50000    82.91699   189.02900     0.11896    97.08301   170.97100     0.11896
    15.60000    82.91104   189.03675     0.11884    97.08896   170.96325     0.11884
    15.70000    82.90509   189.04451     0.11872    97.09491   170.95549     0.11872
    15.80000    82.89912   189.05229     0.11860    97.10088   170.94771     0.11860
    15.90000    82.89315   189.06008     0.11848    97.10685   170.93992     0.11848
    16.00000    82.88716   189.06789     0.11836    97.11284   170.93211     0.11836
    16.10000    82.88116   189.07572     0.11824    97.11884   170.92428     0.11824
    16.20000    82.87515   189.08356     0.11812    97.12485   170.91644     0.11812
    16.30000    82.86913   189.09141     0.11800    97.13087   170.90859     0.11800
    16.40000    82.86309   189.09928     0.11788    97.13691   170.90072     0.11788
    16.50000    82.85705   189.10717     0.11776    97.14295   170.89283     0.11776
    16.60000    82.85099   189.11507     0.11764    97.14901   170.88493     0.11764
    16.70000    82.84492   189.12298     0.11752    97.15508   170.87702     0.11752
    16.80000    82.83884   189.13091     0.11740    97.16116   170.86909     0.11740
    16.90000    82.83275   189.13886     0.11728    97.16725   170.86114     0.11728
    17.00000    82.82665   189.14682     0.11716    97.17335   170.85318     0.11716
    17.10000    82.82054   189.15480     0.11704    97.17946   170.84520     0.11704
    17.20000    82.81441   189.16280     0.11692    97.18559   170.83720     0.11692
    17.30000    82.80827   189.17080     0.11680    97.19173   170.82920     0.11680
    17.40000    82.80212   189.17883     0.11668    97.19788   170.82117     0.11668
    17.50000    82.79596   189.18687     0.11656    97.20404   170.81313     0.11656
    17.60000    82.78979   189.19493     0.11644    97.21021   170.80507     0.11644
    17.70000    82.78360   189.20300     0.11632    97.21640   170.79700     0.11632
    17.80000    82.77741   189.21109     0.11620    97.22259   170.78891     0.11620
    17.90000    82.77120   189.21919     0.11608    97.22880   170.78081     0.11608
    18.00000    82.76498   189.22731     0.11596    97.23502   170.77269     0.11596
    18.10000    82.75874   189.23545     0.11584    97.24126   170.76455     0.11584
    18.20000    82.75250   189.24360     0.11572    97.24750   170.75640     0.11572
    18.30000    82.74624   189.25177     0.11560    97.25376   170.74823     0.11560
    18.40000    82.73997   189.25996     0.11548    97.26003   170.74004     0.11548
    18.50000    82.73369   189.26816     0.11536    97.26631   170.73184     0.11536
    18.60000    82.72740   189.27637     0.11524    97.27260   170.72363     0.11524
    18.70000    82.72109   189.28461     0.11512    97.27891   170.71539     0.11512
    18.80000    82.71477   189.29286     0.11500    97.28523   170.70714     0.11500
    18.90000    82.70844   189.30112     0.11488    97.29156   170.69888     0.11488
    19.00000    82.70210   189.30941     0.11476    97.29790   170.69059     0.11476
    19.10000    82.69575   189.31771     0.11464    97.30425   170.68229     0.11464
    19.20000    82.68938   189.32602     0.11452    97.31062   170.67398     0.11452
    19.30000    82.68300   189.33436     0.11440    97.31700   170.66564     0.11440
    19.40000    82.67661   189.34271     0.11428    97.32339   170.65729     0.11428
    19.50000    82.67020   189.35107     0.11416    97.32980   170.64893     0.11416
    19.60000    82.66379   189.35946     0.11404    97.33621   170.64054     0.11404
    19.70000    82.65736   189.36786     0.11393    97.34264   170.63214     0.11393
    19.80000    82.65091   189.37627     0.11381    97.34909   170.62373     0.11381
    19.90000    82.64446   189.38471     0.11369    97.35554   170.61529     0.11369
    20.00000    82.63799   189.39316     0.11357    97.36201   170.60684     0.11357
    20.10000    82.63151   189.40163     0.11345    97.36849   170.59837     0.11345
    20.20000    82.62502   189.41011     0.11333    97.37498   170.58989     0.11333
    20.30000    82.61851   189.41861     0.11321    97.38149   170.58139     0.11321
    20.40000    82.61199   189.42713     0.11309    97.38801   170.57287     0.11309
    20.50000    82.60546   189.43567     0.11297    97.39454   170.56433     0.11297
    20.60000    82.59892   189.44422     0.11285    97.40108   170.55578     0.11285
    20.70000    82.59236   189.45280     0.11273    97.40764   170.54720     0.11273
    20.80000    82.58579   189.46138     0.11261    97.41421   170.53862     0.11261
    20.90000    82.57920   189.46999     0.11249    97.42080   170.53001     0.11249
    21.00000    82.57261   189.47861     0.11237    97.42739   170.52139     0.11237
    21.10000    82.56600   189.48726     0.11225    97.43400   170.51274     0.11225
    21.20000    82.55938   189.49592     0.11213    97.44062   170.50408     0.11213
    21.30000    82.55274   189.50459     0.11201    97.44726   170.49541     0.11201
    21.40000    82.54609   189.51329     0.11190    97.45391   170.48671     0.11190
    21.50000    82.53943   189.52200     0.11178    97.46057   170.47800     0.11178
    21.60000    82.53275   189.53073     0.11166    97.46725   170.46927     0.11166
    21.70000    82.52606   189.53948     0.11154    97.47394   170.46052     0.11154
    21.80000    82.51936   189.54824     0.11142    97.48064   170.45176     0.11142
    21.90000    82.51264   189.55703     0.11130    97.48736   170.44297     0.11130
    22.00000    82.50591   189.56583     0.11118    97.49409   170.43417     0.11118
    22.10000    82.49917   189.57465     0.11106    97.50083   170.42535     0.11106
    22.20000    82.49241   189.58349     0.11094    97.50759   170.41651     0.11094
    22.30000    82.48564   189.59235     0.11082    97.51436   170.40765     0.11082
    22.40000    82.47886   189.60122     0.11070    97.52114   170.39878     0.11070
    22.50000    82.47206   189.61012     0.11058    97.52794   170.38988     0.11058
    22.60000    82.46525   189.61903     0.11047    97.53475   170.38097     0.11047
    22.70000    82.45843   189.62796     0.11035    97.54157   170.37204     0.11035
    22.80000    82.45159   189.63691     0.11023    97.54841   170.36309     0.11023
    22.90000    82.44473   189.64587     0.11011    97.55527   170.35413     0.11011
    23.00000    82.43787   189.65486     0.10999    97.56213   170.34514     0.10999
    23.10000    82.43099   189.66387     0.10987    97.56901   170.33613     0.10987
    23.20000    82.42409   189.67289     0.10975    97.57591   170.32711     0.10975
    23.30000    82.41719   189.68193     0.10963    97.58281   170.31807     0.10963
