 # applied field (T), theta (degree), phi (degree), abs for RE 3-4
     0.00000   180.00000   360.00000     3.88919   180.00000   360.00000     3.88919
     0.10000   179.77063   227.68402     3.88919   179.77063   222.31598     3.88919
     0.20000   179.49521   227.67924     3.88916   179.49521   222.32076     3.88916
     0.30000   179.26584   227.68062     3.88912   179.26584   222.31938     3.88912
     0.40000   179.03644   227.68126     3.88907   179.03644   222.31874     3.88907
     0.50000   178.76098   227.67969     3.88898   178.76098   222.32031     3.88898
     0.60000   178.53154   227.68008     3.88890   178.53154   222.31992     3.88890
     0.70000   178.30208   227.68028     3.88880   178.30208   222.31972     3.88880
     0.80000   178.02652   227.67913     3.88866   178.02652   222.32087     3.88866
     0.90000   177.79699   227.67919     3.88853   177.79699   222.32081     3.88853
     1.00000   177.56743   227.67915     3.88839   177.56743   222.32085     3.88839
     1.10000   177.29172   227.67810     3.88819   177.29172   222.32190     3.88819
     1.20000   177.06206   227.67795     3.88802   177.06206   222.32205     3.88802
     1.30000   176.78622   227.67693     3.88779   176.78622   222.32307     3.88779
     1.40000   176.55644   227.67667     3.88758   176.55644   222.32333     3.88758
     1.50000   176.32661   227.67635     3.88735   176.32661   222.32365     3.88735
     1.60000   176.05054   227.67528     3.88707   176.05054   222.32472     3.88707
     1.70000   175.82057   227.67486     3.88681   175.82057   222.32514     3.88681
     1.80000   175.59052   227.67439     3.88655   175.59052   222.32561     3.88655
     1.90000   175.31418   227.67325     3.88621   175.31418   222.32675     3.88621
     2.00000   175.08396   227.67269     3.88591   175.08396   222.32731     3.88591
     2.10000   174.85365   227.67209     3.88559   174.85365   222.32791     3.88559
     2.20000   174.57699   227.67086     3.88519   174.57699   222.32914     3.88519
     2.30000   174.34649   227.67017     3.88485   174.34649   222.32983     3.88485
     2.40000   174.11589   227.66943     3.88449   174.11589   222.33057     3.88449
     2.50000   173.83886   227.66810     3.88404   173.83886   222.33190     3.88404
     2.60000   173.60803   227.66728     3.88365   173.60803   222.33272     3.88365
     2.70000   173.33072   227.66589     3.88316   173.33072   222.33411     3.88316
     2.80000   173.09965   227.66499     3.88273   173.09965   222.33501     3.88273
     2.90000   172.86845   227.66405     3.88230   172.86845   222.33595     3.88230
     3.00000   172.59069   227.66255     3.88175   172.59069   222.33745     3.88175
     3.10000   172.35923   227.66153     3.88129   172.35923   222.33847     3.88129
     3.20000   172.12763   227.66047     3.88080   172.12763   222.33953     3.88080
     3.30000   171.84937   227.65886     3.88020   171.84937   222.34114     3.88020
     3.40000   171.61747   227.65772     3.87969   171.61747   222.34228     3.87969
     3.50000   171.33883   227.65603     3.87905   171.33883   222.34397     3.87905
     3.60000   171.10662   227.65481     3.87851   171.10662   222.34519     3.87851
     3.70000   170.87425   227.65356     3.87795   170.87425   222.34644     3.87795
     3.80000   170.59503   227.65176     3.87726   170.59503   222.34824     3.87726
     3.90000   170.36231   227.65043     3.87667   170.36231   222.34957     3.87667
     4.00000   170.12943   227.64906     3.87606   170.12943   222.35094     3.87606
     4.10000   169.84958   227.64714     3.87532   169.84958   222.35286     3.87532
     4.20000   169.61632   227.64570     3.87468   169.61632   222.35430     3.87468
     4.30000   169.33600   227.64371     3.87390   169.33600   222.35629     3.87390
     4.40000   169.10235   227.64219     3.87323   169.10235   222.35781     3.87323
     4.50000   168.86851   227.64064     3.87255   168.86851   222.35936     3.87255
     4.60000   168.58748   227.63853     3.87172   168.58748   222.36147     3.87172
     4.70000   168.35322   227.63690     3.87100   168.35322   222.36310     3.87100
     4.80000   168.07167   227.63471     3.87013   168.07167   222.36529     3.87013
     4.90000   167.83697   227.63301     3.86939   167.83697   222.36699     3.86939
     5.00000   167.60205   227.63128     3.86863   167.60205   222.36872     3.86863
     5.10000   167.31971   227.62897     3.86770   167.31971   222.37103     3.86770
     5.20000   167.08432   227.62717     3.86691   167.08432   222.37283     3.86691
     5.30000   166.80140   227.62478     3.86595   166.80140   222.37522     3.86595
     5.40000   166.56553   227.62291     3.86513   166.56553   222.37709     3.86513
     5.50000   166.28201   227.62045     3.86413   166.28201   222.37955     3.86413
     5.60000   166.04562   227.61850     3.86328   166.04562   222.38150     3.86328
     5.70000   165.80900   227.61652     3.86242   165.80900   222.38348     3.86242
     5.80000   165.52456   227.61395     3.86137   165.52456   222.38605     3.86137
     5.90000   165.28740   227.61190     3.86047   165.28740   222.38810     3.86047
     6.00000   165.00231   227.60925     3.85938   165.00231   222.39075     3.85938
     6.10000   164.76459   227.60713     3.85846   164.76459   222.39287     3.85846
     6.20000   164.47882   227.60440     3.85733   164.47882   222.39560     3.85733
     6.30000   164.24052   227.60221     3.85637   164.24052   222.39779     3.85637
     6.40000   163.95405   227.59941     3.85521   163.95405   222.40059     3.85521
     6.50000   163.71516   227.59716     3.85423   163.71516   222.40284     3.85423
     6.60000   163.47598   227.59487     3.85323   163.47598   222.40513     3.85323
     6.70000   163.18845   227.59196     3.85201   163.18845   222.40804     3.85201
     6.80000   162.94865   227.58961     3.85098   162.94865   222.41039     3.85098
     6.90000   162.66035   227.58662     3.84973   162.66035   222.41338     3.84973
     7.00000   162.41991   227.58421     3.84867   162.41991   222.41579     3.84867
     7.10000   162.13082   227.58115     3.84739   162.13082   222.41885     3.84739
     7.20000   161.88972   227.57867     3.84630   161.88972   222.42133     3.84630
     7.30000   161.59983   227.57553     3.84498   161.59983   222.42447     3.84498
     7.40000   161.35804   227.57299     3.84386   161.35804   222.42701     3.84386
     7.50000   161.06731   227.56979     3.84250   161.06731   222.43021     3.84250
     7.60000   160.82482   227.56718     3.84135   160.82482   222.43282     3.84135
     7.70000   160.53324   227.56391     3.83996   160.53324   222.43609     3.83996
     7.80000   160.29002   227.56124     3.83878   160.29002   222.43876     3.83878
     7.90000   159.99757   227.55789     3.83736   159.99757   222.44211     3.83736
     8.00000   159.75361   227.55517     3.83615   159.75361   222.44483     3.83615
     8.10000   159.46025   227.55175     3.83469   159.46025   222.44825     3.83469
     8.20000   159.21553   227.54896     3.83345   159.21553   222.45104     3.83345
     8.30000   158.92124   227.54548     3.83195   158.92124   222.45452     3.83195
     8.40000   158.62644   227.54197     3.83044   158.62644   222.45803     3.83044
     8.50000   158.38050   227.53909     3.82916   158.38050   222.46091     3.82916
     8.60000   158.08474   227.53551     3.82761   158.08474   222.46449     3.82761
     8.70000   157.83799   227.53257     3.82630   157.83799   222.46743     3.82630
     8.80000   157.54125   227.52892     3.82472   157.54125   222.47108     3.82472
     8.90000   157.29366   227.52593     3.82338   157.29366   222.47407     3.82338
     9.00000   156.99591   227.52222     3.82176   156.99591   222.47778     3.82176
     9.10000   156.69759   227.51848     3.82013   156.69759   222.48152     3.82013
     9.20000   156.44868   227.51540     3.81875   156.44868   222.48460     3.81875
     9.30000   156.14932   227.51160     3.81708   156.14932   222.48840     3.81708
     9.40000   155.89953   227.50847     3.81567   155.89953   222.49153     3.81567
     9.50000   155.59910   227.50460     3.81397   155.59910   222.49540     3.81397
     9.60000   155.29807   227.50070     3.81225   155.29807   222.49930     3.81225
     9.70000   155.04688   227.49749     3.81080   155.04688   222.50251     3.81080
     9.80000   154.74475   227.49354     3.80905   154.74475   222.50646     3.80905
     9.90000   154.44201   227.48955     3.80728   154.44201   222.51045     3.80728
    10.00000   154.18937   227.48626     3.80579   154.18937   222.51374     3.80579
    10.10000   153.88549   227.48222     3.80399   153.88549   222.51778     3.80399
    10.20000   153.58098   227.47814     3.80217   153.58098   222.52186     3.80217
    10.30000   153.32684   227.47479     3.80064   153.32684   222.52521     3.80064
    10.40000   153.02115   227.47066     3.79879   153.02115   222.52934     3.79879
    10.50000   152.71481   227.46650     3.79692   152.71481   222.53350     3.79692
    10.60000   152.45913   227.46307     3.79535   152.45913   222.53693     3.79535
    10.70000   152.15157   227.45887     3.79346   152.15157   222.54113     3.79346
    10.80000   151.84335   227.45463     3.79154   151.84335   222.54537     3.79154
    10.90000   151.53444   227.45037     3.78961   151.53444   222.54963     3.78961
    11.00000   151.27661   227.44685     3.78799   151.27661   222.55315     3.78799
    11.10000   150.96644   227.44254     3.78603   150.96644   222.55746     3.78603
    11.20000   150.65558   227.43820     3.78406   150.65558   222.56180     3.78406
    11.30000   150.34401   227.43384     3.78206   150.34401   222.56616     3.78206
    11.40000   150.03173   227.42946     3.78006   150.03173   222.57054     3.78006
    11.50000   149.77106   227.42584     3.77837   149.77106   222.57416     3.77837
    11.60000   149.45746   227.42141     3.77634   149.45746   222.57859     3.77634
    11.70000   149.14313   227.41696     3.77429   149.14313   222.58304     3.77429
    11.80000   148.82807   227.41248     3.77222   148.82807   222.58752     3.77222
    11.90000   148.51226   227.40799     3.77014   148.51226   222.59201     3.77014
    12.00000   148.19570   227.40347     3.76805   148.19570   222.59653     3.76805
    12.10000   147.93143   227.39973     3.76629   147.93143   222.60027     3.76629
    12.20000   147.61348   227.39518     3.76416   147.61348   222.60482     3.76416
    12.30000   147.29477   227.39061     3.76203   147.29477   222.60939     3.76203
    12.40000   146.97528   227.38601     3.75988   146.97528   222.61399     3.75988
    12.50000   146.65500   227.38140     3.75772   146.65500   222.61860     3.75772
    12.60000   146.33394   227.37677     3.75554   146.33394   222.62323     3.75554
    12.70000   146.01209   227.37212     3.75335   146.01209   222.62788     3.75335
    12.80000   145.68944   227.36746     3.75115   145.68944   222.63254     3.75115
    12.90000   145.36598   227.36278     3.74893   145.36598   222.63722     3.74893
    13.00000   145.04171   227.35808     3.74670   145.04171   222.64192     3.74670
    13.10000   144.71662   227.35337     3.74446   144.71662   222.64663     3.74446
    13.20000   144.39071   227.34864     3.74220   144.39071   222.65136     3.74220
    13.30000   144.06397   227.34390     3.73994   144.06397   222.65610     3.73994
    13.40000   143.73639   227.33915     3.73766   143.73639   222.66085     3.73766
    13.50000   143.35305   227.33355     3.73499   143.35305   222.66645     3.73499
    13.60000   143.02364   227.32877     3.73269   143.02364   222.67123     3.73269
    13.70000   142.69338   227.32398     3.73037   142.69338   222.67602     3.73037
    13.80000   142.36225   227.31918     3.72805   142.36225   222.68082     3.72805
    13.90000   142.03025   227.31437     3.72571   142.03025   222.68563     3.72571
    14.00000   141.69739   227.30955     3.72337   141.69739   222.69045     3.72337
    14.10000   141.30785   227.30388     3.72062   141.30785   222.69612     3.72062
    14.20000   140.97307   227.29905     3.71826   140.97307   222.70095     3.71826
    14.30000   140.63741   227.29420     3.71588   140.63741   222.70580     3.71588
    14.40000   140.24459   227.28851     3.71310   140.24459   222.71149     3.71310
    14.50000   139.90698   227.28365     3.71070   139.90698   222.71635     3.71070
    14.60000   139.56846   227.27879     3.70830   139.56846   222.72121     3.70830
    14.70000   139.17230   227.27308     3.70549   139.17230   222.72692     3.70549
    14.80000   138.83181   227.26821     3.70307   138.83181   222.73179     3.70307
    14.90000   138.49039   227.26334     3.70064   138.49039   222.73666     3.70064
    15.00000   138.09082   227.25762     3.69780   138.09082   222.74238     3.69780
    15.10000   137.74740   227.25275     3.69535   137.74740   222.74725     3.69535
    15.20000   137.34547   227.24703     3.69250   137.34547   222.75297     3.69250
    15.30000   136.94227   227.24131     3.68963   136.94227   222.75869     3.68963
    15.40000   136.59571   227.23644     3.68717   136.59571   222.76356     3.68717
    15.50000   136.19011   227.23073     3.68429   136.19011   222.76927     3.68429
    15.60000   135.84148   227.22586     3.68181   135.84148   222.77414     3.68181
    15.70000   135.43347   227.22016     3.67892   135.43347   222.77984     3.67892
    15.80000   135.02414   227.21446     3.67602   135.02414   222.78554     3.67602
    15.90000   134.61350   227.20877     3.67312   134.61350   222.79123     3.67312
    16.00000   134.20154   227.20309     3.67021   134.20154   222.79691     3.67021
    16.10000   133.84743   227.19826     3.66772   133.84743   222.80174     3.66772
    16.20000   133.43300   227.19260     3.66480   133.43300   222.80740     3.66480
    16.30000   133.01724   227.18695     3.66189   133.01724   222.81305     3.66189
    16.40000   132.60013   227.18132     3.65897   132.60013   222.81868     3.65897
    16.50000   132.18169   227.17570     3.65605   132.18169   222.82430     3.65605
    16.60000   131.76189   227.17009     3.65313   131.76189   222.82991     3.65313
    16.70000   131.34074   227.16451     3.65021   131.34074   222.83549     3.65021
    16.80000   130.85772   227.15813     3.64688   130.85772   222.84187     3.64688
    16.90000   130.43366   227.15259     3.64396   130.43366   222.84741     3.64396
    17.00000   130.00825   227.14706     3.64104   130.00825   222.85294     3.64104
    17.10000   129.52033   227.14076     3.63772   129.52033   222.85924     3.63772
    17.20000   129.09199   227.13529     3.63481   129.09199   222.86471     3.63481
    17.30000   128.66229   227.12984     3.63190   128.66229   222.87016     3.63190
    17.40000   128.16947   227.12362     3.62859   128.16947   222.87638     3.62859
    17.50000   127.67486   227.11745     3.62529   127.67486   222.88255     3.62529
    17.60000   127.24065   227.11209     3.62240   127.24065   222.88791     3.62240
    17.70000   126.74269   227.10599     3.61912   126.74269   222.89401     3.61912
    17.80000   126.24294   227.09992     3.61584   126.24294   222.90008     3.61584
    17.90000   125.74140   227.09391     3.61258   125.74140   222.90609     3.61258
    18.00000   125.23808   227.08793     3.60933   125.23808   222.91207     3.60933
    18.10000   124.73297   227.08201     3.60609   124.73297   222.91799     3.60609
    18.20000   124.22608   227.07613     3.60287   124.22608   222.92387     3.60287
    18.30000   123.71742   227.07030     3.59967   123.71742   222.92970     3.59967
    18.40000   123.14302   227.06380     3.59609   123.14302   222.93620     3.59609
    18.50000   122.63059   227.05808     3.59293   122.63059   222.94192     3.59293
    18.60000   122.05198   227.05171     3.58940   122.05198   222.94829     3.58940
    18.70000   121.47116   227.04541     3.58589   121.47116   222.95459     3.58589
    18.80000   120.95304   227.03989     3.58280   120.95304   222.96011     3.58280
    18.90000   120.36806   227.03374     3.57936   120.36806   222.96626     3.57936
    19.00000   119.71550   227.02699     3.57557   119.71550   222.97301     3.57557
    19.10000   119.12593   227.02101     3.57220   119.12593   222.97899     3.57220
    19.20000   118.53422   227.01512     3.56886   118.53422   222.98488     3.56886
    19.30000   117.87424   227.00867     3.56520   117.87424   222.99133     3.56520
    19.40000   117.21166   227.00234     3.56159   117.21166   222.99766     3.56159
    19.50000   116.54650   226.99612     3.55803   116.54650   223.00388     3.55803
    19.60000   115.87881   226.99002     3.55453   115.87881   223.00998     3.55453
    19.70000   115.14142   226.98344     3.55074   115.14142   223.01656     3.55074
    19.80000   114.40105   226.97702     3.54703   114.40105   223.02298     3.54703
    19.90000   113.65774   226.97076     3.54340   113.65774   223.02924     3.54340
    20.00000   112.91155   226.96465     3.53984   112.91155   223.03535     3.53984
    20.10000   112.09427   226.95817     3.53606   112.09427   223.04183     3.53606
    20.20000   111.27371   226.95190     3.53238   111.27371   223.04810     3.53238
    20.30000   110.38113   226.94533     3.52852   110.38113   223.05467     3.52852
    20.40000   109.48490   226.93900     3.52478   109.48490   223.06100     3.52478
    20.50000   108.51577   226.93247     3.52091   108.51577   223.06753     3.52091
    20.60000   107.47302   226.92581     3.51695   107.47302   223.07419     3.51695
    20.70000   106.42593   226.91950     3.51318   106.42593   223.08050     3.51318
    20.80000   105.30448   226.91316     3.50938   105.30448   223.08684     3.50938
    20.90000   104.03756   226.90653     3.50539   104.03756   223.09347     3.50539
    21.00000   102.69459   226.90012     3.50152   102.69459   223.09988     3.50152
    21.10000   101.13295   226.89347     3.49749   101.13295   223.10653     3.49749
    21.20000    99.35070   226.88693     3.49351    99.35070   223.11307     3.49351
    21.30000    97.13116   226.88037     3.48951    97.13116   223.11963     3.48951
    21.40000    93.75108   226.87377     3.48546    93.75108   223.12623     3.48546
    21.50000    90.00000   226.87127     3.48390    90.00000   223.12873     3.48390
    21.60000    90.00000   226.87131     3.48389    90.00000   223.12869     3.48389
    21.70000    90.00000   226.87135     3.48388    90.00000   223.12865     3.48388
    21.80000    90.00000   226.87140     3.48387    90.00000   223.12860     3.48387
    21.90000    90.00000   226.87144     3.48385    90.00000   223.12856     3.48385
    22.00000    90.00000   226.87148     3.48384    90.00000   223.12852     3.48384
    22.10000    90.00000   226.87152     3.48383    90.00000   223.12848     3.48383
    22.20000    90.00000   226.87156     3.48382    90.00000   223.12844     3.48382
    22.30000    90.00000   226.87160     3.48381    90.00000   223.12840     3.48381
    22.40000    90.00000   226.87164     3.48379    90.00000   223.12836     3.48379
    22.50000    90.00000   226.87168     3.48378    90.00000   223.12832     3.48378
    22.60000    90.00000   226.87172     3.48377    90.00000   223.12828     3.48377
    22.70000    90.00000   226.87176     3.48376    90.00000   223.12824     3.48376
    22.80000    90.00000   226.87181     3.48374    90.00000   223.12819     3.48374
    22.90000    90.00000   226.87185     3.48373    90.00000   223.12815     3.48373
    23.00000    90.00000   226.87189     3.48372    90.00000   223.12811     3.48372
    23.10000    90.00000   226.87193     3.48371    90.00000   223.12807     3.48371
    23.20000    90.00000   226.87197     3.48369    90.00000   223.12803     3.48369
    23.30000    90.00000   226.87201     3.48368    90.00000   223.12799     3.48368
