 # applied field (T), theta (degree), phi (degree), abs [muB/unitcell], abs [T]
       0.00000000       0.00000000       0.00000000      38.07674798       1.28159993
       0.10000000       0.57074260     360.00000000      38.07672424       1.28159913
       0.20000000       1.14148728     360.00000000      38.07665305       1.28159673
       0.30000000       1.71223613     360.00000000      38.07653444       1.28159274
       0.40000000       2.28299122     360.00000000      38.07636850       1.28158715
       0.50000000       2.85375465     360.00000000      38.07615534       1.28157998
       0.60000000       3.42452849     360.00000000      38.07589510       1.28157122
       0.70000000       3.99531482     360.00000000      38.07558795       1.28156088
       0.80000000       4.56611574     360.00000000      38.07523410       1.28154897
       0.90000000       5.13693331     360.00000000      38.07483378       1.28153550
       1.00000000       5.70776962     360.00000000      38.07438725       1.28152047
       1.10000000       6.27862674     360.00000000      38.07389479       1.28150389
       1.20000000       6.84950674     360.00000000      38.07335671       1.28148578
       1.30000000       7.42041168     360.00000000      38.07277334       1.28146615
       1.40000000       7.99134361     360.00000000      38.07214506       1.28144500
       1.50000000       8.61932888     360.00000000      38.07139974       1.28141991
       1.60000000       9.19032424     360.00000000      38.07067819       1.28139563
       1.70000000       9.76135288     360.00000000      38.06991296       1.28136987
       1.80000000      10.38945205     360.00000000      38.06901794       1.28133975
       1.90000000      10.96055717     360.00000000      38.06816224       1.28131095
       2.00000000      11.58874546     360.00000000      38.06716844       1.28127750
       2.10000000      12.21698423     360.00000000      38.06612374       1.28124233
       2.20000000      12.78822233     360.00000000      38.06513413       1.28120902
       2.30000000      13.41656424     360.00000000      38.06399428       1.28117066
       2.40000000      14.04496376     360.00000000      38.06280550       1.28113065
       2.50000000      14.67342320     360.00000000      38.06156849       1.28108901
       2.60000000      15.30194480     360.00000000      38.06028396       1.28104578
       2.70000000      15.93053073     360.00000000      38.05895263       1.28100097
       2.80000000      16.61627155     360.00000000      38.05744291       1.28095015
       2.90000000      17.24499870     360.00000000      38.05601591       1.28090212
       3.00000000      17.93089851     360.00000000      38.05440320       1.28084784
       3.10000000      18.61688474     360.00000000      38.05273808       1.28079179
       3.20000000      19.30295950     360.00000000      38.05102150       1.28073402
       3.30000000      19.98912468     360.00000000      38.04925444       1.28067454
       3.40000000      20.67538203     360.00000000      38.04743787       1.28061340
       3.50000000      21.41887504     360.00000000      38.04540949       1.28054513
       3.60000000      22.10532929     360.00000000      38.04349273       1.28048061
       3.70000000      22.84903894     360.00000000      38.04135775       1.28040875
       3.80000000      23.59286313     360.00000000      38.03916905       1.28033508
       3.90000000      24.39398083     360.00000000      38.03674739       1.28025357
       4.00000000      25.19523349     360.00000000      38.03426608       1.28017006
       4.10000000      25.99662133     360.00000000      38.03172669       1.28008459
       4.20000000      26.79814411     360.00000000      38.02913081       1.27999721
       4.30000000      27.65701967     360.00000000      38.02628239       1.27990134
       4.40000000      28.51604868     360.00000000      38.02337260       1.27980340
       4.50000000      29.37522926     360.00000000      38.02040346       1.27970346
       4.60000000      30.29180920     360.00000000      38.01716695       1.27959453
       4.70000000      31.26581749     360.00000000      38.01365310       1.27947626
       4.80000000      32.24000980     360.00000000      38.01007105       1.27935569
       4.90000000      33.27166423     360.00000000      38.00620149       1.27922545
       5.00000000      34.30351161     360.00000000      38.00226295       1.27909289
       5.10000000      35.45015552     360.00000000      37.99779874       1.27894263
       5.20000000      36.59701656     360.00000000      37.99326012       1.27878987
       5.30000000      37.80140961     360.00000000      37.98841575       1.27862681
       5.40000000      39.12069013     360.00000000      37.98302158       1.27844525
       5.50000000      40.49755253     360.00000000      37.97731282       1.27825311
       5.60000000      41.98936392     360.00000000      37.97104653       1.27804219
       5.70000000      43.59615572     360.00000000      37.96422491       1.27781259
       5.80000000      45.43271002     360.00000000      37.95635801       1.27754780
       5.90000000      47.44170584     360.00000000      37.94771932       1.27725704
       6.00000000      49.73796343     360.00000000      37.93786155       1.27692524
       6.10000000      52.49376040     360.00000000      37.92615684       1.27653128
       6.20000000      56.11110989     360.00000000      37.91121465       1.27602835
       6.30000000      61.56648883     360.00000000      37.89020532       1.27532121
       6.40000000      90.00000000     360.00000000      37.83532206       1.27347393
       6.50000000      90.00000000     360.00000000      37.83557090       1.27348231
       6.60000000      90.00000000     360.00000000      37.83581971       1.27349068
       6.70000000      90.00000000     360.00000000      37.83606847       1.27349906
       6.80000000      90.00000000     360.00000000      37.83631718       1.27350743
       6.90000000      90.00000000     360.00000000      37.83656585       1.27351580
       7.00000000      90.00000000     360.00000000      37.83681447       1.27352416
       7.10000000      90.00000000     360.00000000      37.83706305       1.27353253
       7.20000000      90.00000000     360.00000000      37.83731159       1.27354090
       7.30000000      90.00000000     360.00000000      37.83756008       1.27354926
       7.40000000      90.00000000     360.00000000      37.83780852       1.27355762
       7.50000000      90.00000000     360.00000000      37.83805692       1.27356598
       7.60000000      90.00000000     360.00000000      37.83830528       1.27357434
       7.70000000      90.00000000     360.00000000      37.83855359       1.27358270
       7.80000000      90.00000000     360.00000000      37.83880185       1.27359106
       7.90000000      90.00000000     360.00000000      37.83905008       1.27359941
       8.00000000      90.00000000     360.00000000      37.83929825       1.27360776
       8.10000000      90.00000000     360.00000000      37.83954638       1.27361612
       8.20000000      90.00000000     360.00000000      37.83979447       1.27362447
       8.30000000      90.00000000     360.00000000      37.84004251       1.27363282
       8.40000000      90.00000000     360.00000000      37.84029051       1.27364116
       8.50000000      90.00000000     360.00000000      37.84053846       1.27364951
       8.60000000      90.00000000     360.00000000      37.84078637       1.27365785
       8.70000000      90.00000000     360.00000000      37.84103423       1.27366619
       8.80000000      90.00000000     360.00000000      37.84128205       1.27367454
       8.90000000      90.00000000     360.00000000      37.84152982       1.27368288
       9.00000000      90.00000000     360.00000000      37.84177755       1.27369121
       9.10000000      90.00000000     360.00000000      37.84202523       1.27369955
       9.20000000      90.00000000     360.00000000      37.84227287       1.27370789
       9.30000000      90.00000000     360.00000000      37.84252047       1.27371622
       9.40000000      90.00000000     360.00000000      37.84276802       1.27372455
       9.50000000      90.00000000     360.00000000      37.84301552       1.27373288
       9.60000000      90.00000000     360.00000000      37.84326298       1.27374121
       9.70000000      90.00000000     360.00000000      37.84351040       1.27374954
       9.80000000      90.00000000     360.00000000      37.84375777       1.27375786
       9.90000000      90.00000000     360.00000000      37.84400510       1.27376619
      10.00000000      90.00000000     360.00000000      37.84425238       1.27377451
      10.10000000      90.00000000     360.00000000      37.84449962       1.27378283
      10.20000000      90.00000000     360.00000000      37.84474682       1.27379115
      10.30000000      90.00000000     360.00000000      37.84499397       1.27379947
      10.40000000      90.00000000     360.00000000      37.84524107       1.27380779
      10.50000000      90.00000000     360.00000000      37.84548813       1.27381611
      10.60000000      90.00000000     360.00000000      37.84573515       1.27382442
      10.70000000      90.00000000     360.00000000      37.84598213       1.27383273
      10.80000000      90.00000000     360.00000000      37.84622905       1.27384104
      10.90000000      90.00000000     360.00000000      37.84647594       1.27384935
      11.00000000      90.00000000     360.00000000      37.84672278       1.27385766
      11.10000000      90.00000000     360.00000000      37.84696958       1.27386597
      11.20000000      90.00000000     360.00000000      37.84721633       1.27387427
      11.30000000      90.00000000     360.00000000      37.84746304       1.27388258
      11.40000000      90.00000000     360.00000000      37.84770971       1.27389088
      11.50000000      90.00000000     360.00000000      37.84795633       1.27389918
      11.60000000      90.00000000     360.00000000      37.84820291       1.27390748
      11.70000000      90.00000000     360.00000000      37.84844944       1.27391578
      11.80000000      90.00000000     360.00000000      37.84869594       1.27392408
      11.90000000      90.00000000     360.00000000      37.84894238       1.27393237
      12.00000000      90.00000000     360.00000000      37.84918879       1.27394066
      12.10000000      90.00000000     360.00000000      37.84943515       1.27394896
      12.20000000      90.00000000     360.00000000      37.84968147       1.27395725
      12.30000000      90.00000000     360.00000000      37.84992774       1.27396554
      12.40000000      90.00000000     360.00000000      37.85017397       1.27397382
      12.50000000      90.00000000     360.00000000      37.85042016       1.27398211
      12.60000000      90.00000000     360.00000000      37.85066630       1.27399039
      12.70000000      90.00000000     360.00000000      37.85091240       1.27399868
      12.80000000      90.00000000     360.00000000      37.85115846       1.27400696
      12.90000000      90.00000000     360.00000000      37.85140447       1.27401524
      13.00000000      90.00000000     360.00000000      37.85165045       1.27402352
      13.10000000      90.00000000     360.00000000      37.85189637       1.27403180
      13.20000000      90.00000000     360.00000000      37.85214226       1.27404007
      13.30000000      90.00000000     360.00000000      37.85238810       1.27404835
      13.40000000      90.00000000     360.00000000      37.85263390       1.27405662
      13.50000000      90.00000000     360.00000000      37.85287966       1.27406489
      13.60000000      90.00000000     360.00000000      37.85312537       1.27407316
      13.70000000      90.00000000     360.00000000      37.85337104       1.27408143
      13.80000000      90.00000000     360.00000000      37.85361667       1.27408970
      13.90000000      90.00000000     360.00000000      37.85386225       1.27409796
      14.00000000      90.00000000     360.00000000      37.85410779       1.27410623
      14.10000000      90.00000000     360.00000000      37.85435329       1.27411449
      14.20000000      90.00000000     360.00000000      37.85459875       1.27412275
      14.30000000      90.00000000     360.00000000      37.85484416       1.27413101
      14.40000000      90.00000000     360.00000000      37.85508953       1.27413927
      14.50000000      90.00000000     360.00000000      37.85533486       1.27414753
      14.60000000      90.00000000     360.00000000      37.85558014       1.27415579
      14.70000000      90.00000000     360.00000000      37.85582539       1.27416404
      14.80000000      90.00000000     360.00000000      37.85607059       1.27417229
      14.90000000      90.00000000     360.00000000      37.85631575       1.27418055
      15.00000000      90.00000000     360.00000000      37.85656086       1.27418880
      15.10000000      90.00000000     360.00000000      37.85680593       1.27419704
      15.20000000      90.00000000     360.00000000      37.85705096       1.27420529
      15.30000000      90.00000000     360.00000000      37.85729595       1.27421354
      15.40000000      90.00000000     360.00000000      37.85754090       1.27422178
      15.50000000      90.00000000     360.00000000      37.85778580       1.27423002
      15.60000000      90.00000000     360.00000000      37.85803066       1.27423827
      15.70000000      90.00000000     360.00000000      37.85827548       1.27424651
      15.80000000      90.00000000     360.00000000      37.85852025       1.27425475
      15.90000000      90.00000000     360.00000000      37.85876498       1.27426298
      16.00000000      90.00000000     360.00000000      37.85900968       1.27427122
      16.10000000      90.00000000     360.00000000      37.85925432       1.27427945
      16.20000000      90.00000000     360.00000000      37.85949893       1.27428769
      16.30000000      90.00000000     360.00000000      37.85974349       1.27429592
      16.40000000      90.00000000     360.00000000      37.85998802       1.27430415
      16.50000000      90.00000000     360.00000000      37.86023250       1.27431238
      16.60000000      90.00000000     360.00000000      37.86047693       1.27432060
      16.70000000      90.00000000     360.00000000      37.86072133       1.27432883
      16.80000000      90.00000000     360.00000000      37.86096568       1.27433705
      16.90000000      90.00000000     360.00000000      37.86120999       1.27434528
      17.00000000      90.00000000     360.00000000      37.86145426       1.27435350
      17.10000000      90.00000000     360.00000000      37.86169849       1.27436172
      17.20000000      90.00000000     360.00000000      37.86194268       1.27436994
      17.30000000      90.00000000     360.00000000      37.86218682       1.27437816
      17.40000000      90.00000000     360.00000000      37.86243092       1.27438637
      17.50000000      90.00000000     360.00000000      37.86267498       1.27439459
      17.60000000      90.00000000     360.00000000      37.86291900       1.27440280
      17.70000000      90.00000000     360.00000000      37.86316297       1.27441101
      17.80000000      90.00000000     360.00000000      37.86340691       1.27441922
      17.90000000      90.00000000     360.00000000      37.86365080       1.27442743
      18.00000000      90.00000000     360.00000000      37.86389465       1.27443564
      18.10000000      90.00000000     360.00000000      37.86413846       1.27444384
      18.20000000      90.00000000     360.00000000      37.86438222       1.27445205
      18.30000000      90.00000000     360.00000000      37.86462595       1.27446025
      18.40000000      90.00000000     360.00000000      37.86486963       1.27446845
      18.50000000      90.00000000     360.00000000      37.86511327       1.27447666
      18.60000000      90.00000000     360.00000000      37.86535687       1.27448485
      18.70000000      90.00000000     360.00000000      37.86560043       1.27449305
      18.80000000      90.00000000     360.00000000      37.86584394       1.27450125
      18.90000000      90.00000000     360.00000000      37.86608742       1.27450944
      19.00000000      90.00000000     360.00000000      37.86633085       1.27451764
      19.10000000      90.00000000     360.00000000      37.86657424       1.27452583
      19.20000000      90.00000000     360.00000000      37.86681759       1.27453402
      19.30000000      90.00000000     360.00000000      37.86706090       1.27454221
      19.40000000      90.00000000     360.00000000      37.86730417       1.27455040
      19.50000000      90.00000000     360.00000000      37.86754739       1.27455858
      19.60000000      90.00000000     360.00000000      37.86779057       1.27456677
      19.70000000      90.00000000     360.00000000      37.86803371       1.27457495
      19.80000000      90.00000000     360.00000000      37.86827681       1.27458313
      19.90000000      90.00000000     360.00000000      37.86851987       1.27459132
      20.00000000      90.00000000     360.00000000      37.86876289       1.27459950
      20.10000000      90.00000000     360.00000000      37.86900586       1.27460767
      20.20000000      90.00000000     360.00000000      37.86924880       1.27461585
      20.30000000      90.00000000     360.00000000      37.86949169       1.27462403
      20.40000000      90.00000000     360.00000000      37.86973454       1.27463220
      20.50000000      90.00000000     360.00000000      37.86997735       1.27464037
      20.60000000      90.00000000     360.00000000      37.87022011       1.27464854
      20.70000000      90.00000000     360.00000000      37.87046284       1.27465671
      20.80000000      90.00000000     360.00000000      37.87070552       1.27466488
      20.90000000      90.00000000     360.00000000      37.87094817       1.27467305
      21.00000000      90.00000000     360.00000000      37.87119077       1.27468121
      21.10000000      90.00000000     360.00000000      37.87143333       1.27468938
      21.20000000      90.00000000     360.00000000      37.87167585       1.27469754
      21.30000000      90.00000000     360.00000000      37.87191833       1.27470570
      21.40000000      90.00000000     360.00000000      37.87216076       1.27471386
      21.50000000      90.00000000     360.00000000      37.87240316       1.27472202
      21.60000000      90.00000000     360.00000000      37.87264551       1.27473018
      21.70000000      90.00000000     360.00000000      37.87288782       1.27473833
      21.80000000      90.00000000     360.00000000      37.87313009       1.27474649
      21.90000000      90.00000000     360.00000000      37.87337232       1.27475464
      22.00000000      90.00000000     360.00000000      37.87361451       1.27476279
      22.10000000      90.00000000     360.00000000      37.87385666       1.27477094
      22.20000000      90.00000000     360.00000000      37.87409877       1.27477909
      22.30000000      90.00000000     360.00000000      37.87434083       1.27478724
      22.40000000      90.00000000     360.00000000      37.87458285       1.27479539
      22.50000000      90.00000000     360.00000000      37.87482484       1.27480353
      22.60000000      90.00000000     360.00000000      37.87506678       1.27481167
      22.70000000      90.00000000     360.00000000      37.87530868       1.27481982
      22.80000000      90.00000000     360.00000000      37.87555054       1.27482796
      22.90000000      90.00000000     360.00000000      37.87579236       1.27483610
      23.00000000      90.00000000     360.00000000      37.87603414       1.27484423
