 # applied field (T), theta (degree), phi (degree), abs [muB/unitcell], abs [T]
       0.00000000      90.00000000      45.42829117      50.77869428       1.76825449
       0.10000000      89.66045897      44.57170882      50.77869469       1.76825450
       0.20000000      89.32091715      45.42829120      50.77869590       1.76825454
       0.30000000      88.98137376      44.57170877      50.77869792       1.76825461
       0.40000000      88.64182799      45.42829128      50.77870078       1.76825471
       0.50000000      88.35876797      45.42829133      50.77870487       1.76825485
       0.60000000      88.01921582      45.42829140      50.77870952       1.76825502
       0.70000000      87.67965906      44.57170852      50.77871507       1.76825521
       0.80000000      87.34009690      44.57170843      50.77872154       1.76825543
       0.90000000      87.00052856      44.57170832      50.77872897       1.76825569
       1.00000000      86.66095325      44.57170819      50.77873741       1.76825599
       1.10000000      86.32137016      44.57170806      50.77874691       1.76825632
       1.20000000      85.98177852      45.42829209      50.77875751       1.76825669
       1.30000000      85.64217753      44.57170775      50.77876928       1.76825710
       1.40000000      85.30256639      45.42829243      50.77878228       1.76825755
       1.50000000      85.01944602      44.57170741      50.77879731       1.76825807
       1.60000000      84.67981424      44.57170721      50.77881296       1.76825862
       1.70000000      84.34017008      44.57170700      50.77883003       1.76825921
       1.80000000      84.00051273      45.42829323      50.77884862       1.76825986
       1.90000000      83.66084141      45.42829347      50.77886881       1.76826056
       2.00000000      83.32115568      45.00000000      50.77889023       1.76826131
       2.10000000      82.98145404      45.00000000      50.77891388       1.76826213
       2.20000000      82.64173604      45.00000000      50.77893941       1.76826302
       2.30000000      82.30200089      45.00000000      50.77896693       1.76826398
       2.40000000      81.96224778      45.00000000      50.77899653       1.76826501
       2.50000000      81.62247592      45.00000000      50.77902833       1.76826612
       2.60000000      81.28268451      45.00000000      50.77906245       1.76826731
       2.70000000      80.94287276      45.00000000      50.77909900       1.76826858
       2.80000000      80.60303987      45.00000000      50.77913811       1.76826994
       2.90000000      80.26318503      45.00000000      50.77917990       1.76827140
       3.00000000      79.92330745      45.00000000      50.77922450       1.76827295
       3.10000000      79.52685572      44.56338601      50.77927410       1.76827468
       3.20000000      79.18692608      45.43661442      50.77932504       1.76827645
       3.30000000      78.84697117      44.56338512      50.77937922       1.76827834
       3.40000000      78.50699018      44.56338466      50.77943679       1.76828034
       3.50000000      78.16698232      45.43661583      50.77949789       1.76828247
       3.60000000      77.82694678      44.56338367      50.77956266       1.76828472
       3.70000000      77.43030496      44.56338308      50.77963517       1.76828725
       3.80000000      77.03362376      45.00000000      50.77971218       1.76828993
       3.90000000      76.75007893      45.00000000      50.77978494       1.76829247
       4.00000000      76.40991945      45.00000000      50.77986646       1.76829530
       4.10000000      76.01312869      45.00000000      50.77995851       1.76829851
       4.20000000      75.67289924      45.00000000      50.78004972       1.76830169
       4.30000000      75.33263626      45.00000000      50.78014575       1.76830503
       4.40000000      74.93572145      45.00000000      50.78025476       1.76830883
       4.50000000      74.59538215      44.55473217      50.78036211       1.76831256
       4.60000000      74.19837705      44.55473137      50.78048376       1.76831680
       4.70000000      73.85795943      44.55473067      50.78060215       1.76832092
       4.80000000      73.46085971      44.55472983      50.78073735       1.76832563
       4.90000000      73.12035920      45.44527092      50.78086807       1.76833018
       5.00000000      72.72316149      45.00000000      50.78101718       1.76833538
       5.10000000      72.38257441      45.00000000      50.78116099       1.76834038
       5.20000000      71.98527249      45.00000000      50.78132597       1.76834613
       5.30000000      71.58791316      45.00000000      50.78149947       1.76835217
       5.40000000      71.24718567      45.00000000      50.78166482       1.76835793
       5.50000000      70.84971540      44.54572820      50.78185557       1.76836457
       5.60000000      70.45218531      45.45427285      50.78205501       1.76837152
       5.70000000      70.05459308      45.45427392      50.78226393       1.76837879
       5.80000000      69.65693751      44.54572497      50.78248258       1.76838640
       5.90000000      69.25921859      45.00000000      50.78271062       1.76839435
       6.00000000      68.86143277      45.00000000      50.78294941       1.76840266
       6.10000000      68.46358006      45.00000000      50.78319860       1.76841134
       6.20000000      68.12242259      45.00000000      50.78343155       1.76841945
       6.30000000      67.61089314      45.46364775      50.78375805       1.76843082
       6.40000000      67.21282254      44.53635095      50.78404111       1.76844068
       6.50000000      66.70108632      45.00000000      50.78439808       1.76845311
       6.60000000      66.35965916      45.00000000      50.78467351       1.76846270
       6.70000000      65.90453989      45.00000000      50.78502702       1.76847501
       6.80000000      65.50615436      45.00000000      50.78535903       1.76848657
       6.90000000      65.05084785      45.47341780      50.78574163       1.76849989
       7.00000000      64.59544145      44.52658047      50.78613902       1.76851373
       7.10000000      64.08306296      45.00000000      50.78659330       1.76852955
       7.20000000      63.68432017      45.00000000      50.78697999       1.76854302
       7.30000000      63.17170353      45.00000000      50.78747014       1.76856009
       7.40000000      62.71586199      44.51639166      50.78793302       1.76857620
       7.50000000      62.20298703      44.51638942      50.78846092       1.76859459
       7.60000000      61.74691640      45.00000000      50.78895640       1.76861184
       7.70000000      61.23377671      45.00000000      50.78952223       1.76863154
       7.80000000      60.66352035      45.00000000      50.79016408       1.76865390
       7.90000000      60.15007592      45.49424905      50.79077254       1.76867508
       8.00000000      59.52247041      45.00000000      50.79152065       1.76870114
       8.10000000      59.00870187      45.00000000      50.79217190       1.76872381
       8.20000000      58.55182846      45.00000000      50.79277753       1.76874490
       8.30000000      57.86658993      44.49463222      50.79366675       1.76877587
       8.40000000      57.23817308      45.00000000      50.79451709       1.76880548
       8.50000000      56.55241958      45.00000000      50.79546675       1.76883855
       8.60000000      55.92352270      44.48300328      50.79637268       1.76887010
       8.70000000      55.18009583      45.00000000      50.79745547       1.76890780
       8.80000000      54.43634381      45.52917069      50.79857170       1.76894667
       8.90000000      53.63506985      45.00000000      50.79979838       1.76898939
       9.00000000      52.77618849      45.00000000      50.80114169       1.76903617
       9.10000000      51.85961869      45.00000000      50.80260409       1.76908709
       9.20000000      50.99986447      45.00000000      50.80401094       1.76913608
       9.30000000      49.73840486      45.00000000      50.80607050       1.76920780
       9.40000000      48.41869637      45.00000000      50.80825964       1.76928403
       9.50000000      46.75354553      45.00000000      50.81102762       1.76938042
       9.60000000      44.51220898      45.00000000      50.81472065       1.76950902
       9.70000000      15.14724923      45.00000000      50.84817748       1.77067408
       9.80000000      11.91079721      45.00000000      50.85067571       1.77076108
       9.90000000       8.61579817      45.00000000      50.85283668       1.77083633
      10.00000000       4.33713158      45.00000000      50.85478921       1.77090432
      10.10000000       0.00000000       0.00000000      50.85552383       1.77092990
      10.20000000       0.00000000       0.00000000      50.85557204       1.77093158
      10.30000000       0.00000000       0.00000000      50.85562025       1.77093326
      10.40000000       0.00000000       0.00000000      50.85566848       1.77093494
      10.50000000       0.00000000       0.00000000      50.85571670       1.77093662
      10.60000000       0.00000000       0.00000000      50.85576494       1.77093830
      10.70000000       0.00000000       0.00000000      50.85581317       1.77093998
      10.80000000       0.00000000       0.00000000      50.85586142       1.77094166
      10.90000000       0.00000000       0.00000000      50.85590967       1.77094334
      11.00000000       0.00000000       0.00000000      50.85595793       1.77094502
      11.10000000       0.00000000       0.00000000      50.85600619       1.77094670
      11.20000000       0.00000000       0.00000000      50.85605446       1.77094838
      11.30000000       0.00000000       0.00000000      50.85610274       1.77095006
      11.40000000       0.00000000       0.00000000      50.85615102       1.77095174
      11.50000000       0.00000000       0.00000000      50.85619931       1.77095343
      11.60000000       0.00000000       0.00000000      50.85624761       1.77095511
      11.70000000       0.00000000       0.00000000      50.85629591       1.77095679
      11.80000000       0.00000000       0.00000000      50.85634421       1.77095847
      11.90000000       0.00000000       0.00000000      50.85639253       1.77096015
      12.00000000       0.00000000       0.00000000      50.85644085       1.77096184
      12.10000000       0.00000000       0.00000000      50.85648917       1.77096352
      12.20000000       0.00000000       0.00000000      50.85653751       1.77096520
      12.30000000       0.00000000       0.00000000      50.85658584       1.77096689
      12.40000000       0.00000000       0.00000000      50.85663419       1.77096857
      12.50000000       0.00000000       0.00000000      50.85668254       1.77097025
      12.60000000       0.00000000       0.00000000      50.85673090       1.77097194
      12.70000000       0.00000000       0.00000000      50.85677926       1.77097362
      12.80000000       0.00000000       0.00000000      50.85682763       1.77097530
      12.90000000       0.00000000       0.00000000      50.85687600       1.77097699
      13.00000000       0.00000000       0.00000000      50.85692439       1.77097867
      13.10000000       0.00000000       0.00000000      50.85697277       1.77098036
      13.20000000       0.00000000       0.00000000      50.85702117       1.77098204
      13.30000000       0.00000000       0.00000000      50.85706957       1.77098373
      13.40000000       0.00000000       0.00000000      50.85711798       1.77098542
      13.50000000       0.00000000       0.00000000      50.85716639       1.77098710
      13.60000000       0.00000000       0.00000000      50.85721481       1.77098879
      13.70000000       0.00000000       0.00000000      50.85726323       1.77099047
      13.80000000       0.00000000       0.00000000      50.85731166       1.77099216
      13.90000000       0.00000000       0.00000000      50.85736010       1.77099385
      14.00000000       0.00000000       0.00000000      50.85740855       1.77099553
      14.10000000       0.00000000       0.00000000      50.85745700       1.77099722
      14.20000000       0.00000000       0.00000000      50.85750545       1.77099891
      14.30000000       0.00000000       0.00000000      50.85755391       1.77100060
      14.40000000       0.00000000       0.00000000      50.85760238       1.77100228
      14.50000000       0.00000000       0.00000000      50.85765086       1.77100397
      14.60000000       0.00000000       0.00000000      50.85769934       1.77100566
      14.70000000       0.00000000       0.00000000      50.85774783       1.77100735
      14.80000000       0.00000000       0.00000000      50.85779632       1.77100904
      14.90000000       0.00000000       0.00000000      50.85784482       1.77101073
      15.00000000       0.00000000       0.00000000      50.85789333       1.77101242
      15.10000000       0.00000000       0.00000000      50.85794184       1.77101410
      15.20000000       0.00000000       0.00000000      50.85799036       1.77101579
      15.30000000       0.00000000       0.00000000      50.85803888       1.77101748
      15.40000000       0.00000000       0.00000000      50.85808741       1.77101917
      15.50000000       0.00000000       0.00000000      50.85813595       1.77102086
      15.60000000       0.00000000       0.00000000      50.85818449       1.77102255
      15.70000000       0.00000000       0.00000000      50.85823304       1.77102425
      15.80000000       0.00000000       0.00000000      50.85828160       1.77102594
      15.90000000       0.00000000       0.00000000      50.85833016       1.77102763
      16.00000000       0.00000000       0.00000000      50.85837873       1.77102932
      16.10000000       0.00000000       0.00000000      50.85842730       1.77103101
      16.20000000       0.00000000       0.00000000      50.85847589       1.77103270
      16.30000000       0.00000000       0.00000000      50.85852447       1.77103439
      16.40000000       0.00000000       0.00000000      50.85857307       1.77103609
      16.50000000       0.00000000       0.00000000      50.85862167       1.77103778
      16.60000000       0.00000000       0.00000000      50.85867027       1.77103947
      16.70000000       0.00000000       0.00000000      50.85871888       1.77104116
      16.80000000       0.00000000       0.00000000      50.85876750       1.77104286
      16.90000000       0.00000000       0.00000000      50.85881613       1.77104455
      17.00000000       0.00000000       0.00000000      50.85886476       1.77104624
      17.10000000       0.00000000       0.00000000      50.85891339       1.77104794
      17.20000000       0.00000000       0.00000000      50.85896204       1.77104963
      17.30000000       0.00000000       0.00000000      50.85901069       1.77105132
      17.40000000       0.00000000       0.00000000      50.85905934       1.77105302
      17.50000000       0.00000000       0.00000000      50.85910800       1.77105471
      17.60000000       0.00000000       0.00000000      50.85915667       1.77105641
      17.70000000       0.00000000       0.00000000      50.85920535       1.77105810
      17.80000000       0.00000000       0.00000000      50.85925403       1.77105980
      17.90000000       0.00000000       0.00000000      50.85930272       1.77106149
      18.00000000       0.00000000       0.00000000      50.85935141       1.77106319
      18.10000000       0.00000000       0.00000000      50.85940011       1.77106489
      18.20000000       0.00000000       0.00000000      50.85944881       1.77106658
      18.30000000       0.00000000       0.00000000      50.85949753       1.77106828
      18.40000000       0.00000000       0.00000000      50.85954625       1.77106997
      18.50000000       0.00000000       0.00000000      50.85959497       1.77107167
      18.60000000       0.00000000       0.00000000      50.85964370       1.77107337
      18.70000000       0.00000000       0.00000000      50.85969244       1.77107507
      18.80000000       0.00000000       0.00000000      50.85974118       1.77107676
      18.90000000       0.00000000       0.00000000      50.85978993       1.77107846
      19.00000000       0.00000000       0.00000000      50.85983869       1.77108016
      19.10000000       0.00000000       0.00000000      50.85988745       1.77108186
      19.20000000       0.00000000       0.00000000      50.85993622       1.77108355
      19.30000000       0.00000000       0.00000000      50.85998499       1.77108525
      19.40000000       0.00000000       0.00000000      50.86003377       1.77108695
      19.50000000       0.00000000       0.00000000      50.86008256       1.77108865
      19.60000000       0.00000000       0.00000000      50.86013136       1.77109035
      19.70000000       0.00000000       0.00000000      50.86018016       1.77109205
      19.80000000       0.00000000       0.00000000      50.86022896       1.77109375
      19.90000000       0.00000000       0.00000000      50.86027777       1.77109545
      20.00000000       0.00000000       0.00000000      50.86032659       1.77109715
      20.10000000       0.00000000       0.00000000      50.86037542       1.77109885
      20.20000000       0.00000000       0.00000000      50.86042425       1.77110055
      20.30000000       0.00000000       0.00000000      50.86047309       1.77110225
      20.40000000       0.00000000       0.00000000      50.86052193       1.77110395
      20.50000000       0.00000000       0.00000000      50.86057078       1.77110565
      20.60000000       0.00000000       0.00000000      50.86061964       1.77110735
      20.70000000       0.00000000       0.00000000      50.86066850       1.77110905
      20.80000000       0.00000000       0.00000000      50.86071737       1.77111076
      20.90000000       0.00000000       0.00000000      50.86076625       1.77111246
      21.00000000       0.00000000       0.00000000      50.86081513       1.77111416
      21.10000000       0.00000000       0.00000000      50.86086401       1.77111586
      21.20000000       0.00000000       0.00000000      50.86091291       1.77111757
      21.30000000       0.00000000       0.00000000      50.86096181       1.77111927
      21.40000000       0.00000000       0.00000000      50.86101072       1.77112097
      21.50000000       0.00000000       0.00000000      50.86105963       1.77112267
      21.60000000       0.00000000       0.00000000      50.86110855       1.77112438
      21.70000000       0.00000000       0.00000000      50.86115747       1.77112608
      21.80000000       0.00000000       0.00000000      50.86120641       1.77112779
      21.90000000       0.00000000       0.00000000      50.86125535       1.77112949
      22.00000000       0.00000000       0.00000000      50.86130429       1.77113119
      22.10000000       0.00000000       0.00000000      50.86135324       1.77113290
      22.20000000       0.00000000       0.00000000      50.86140220       1.77113460
      22.30000000       0.00000000       0.00000000      50.86145116       1.77113631
      22.40000000       0.00000000       0.00000000      50.86150013       1.77113801
      22.50000000       0.00000000       0.00000000      50.86154911       1.77113972
      22.60000000       0.00000000       0.00000000      50.86159809       1.77114143
      22.70000000       0.00000000       0.00000000      50.86164708       1.77114313
      22.80000000       0.00000000       0.00000000      50.86169607       1.77114484
      22.90000000       0.00000000       0.00000000      50.86174508       1.77114654
      23.00000000       0.00000000       0.00000000      50.86179408       1.77114825
