 # applied field (T), theta (degree), phi (degree), abs for RE 3-4
     0.00000    37.71406   135.00000     0.04687    37.71406    45.00000     0.04687
     0.10000    37.56059   136.33983     0.04749    37.44704    46.38225     0.04672
     0.20000    37.40826   137.50630     0.04806    37.22109    47.65852     0.04660
     0.30000    37.25903   138.75002     0.04867    36.97191    49.10083     0.04646
     0.40000    37.10970   139.94544     0.04928    36.73403    50.57273     0.04633
     0.50000    36.95720   140.98482     0.04982    36.53784    51.92527     0.04622
     0.60000    36.80381   142.09272     0.05041    36.32511    53.44777     0.04611
     0.70000    36.64647   143.15719     0.05099    36.12737    54.99359     0.04600
     0.80000    36.48355   144.08221     0.05150    35.97051    56.40567     0.04592
     0.90000    36.31565   145.06877     0.05205    35.80433    57.98753     0.04583
     1.00000    36.14081   146.01703     0.05259    35.65612    59.58383     0.04575
     1.10000    35.95817   146.92875     0.05311    35.52668    61.19099     0.04569
     1.20000    35.76693   147.80565     0.05361    35.41665    62.80524     0.04563
     1.30000    35.56636   148.64945     0.05409    35.32655    64.42263     0.04559
     1.40000    35.35577   149.46181     0.05455    35.25670    66.03907     0.04555
     1.50000    35.12980   150.31989     0.05503    35.19560    67.81130     0.04553
     1.60000    34.89633   151.07166     0.05545    35.16863    69.41288     0.04552
     1.70000    34.65100   151.79691     0.05584    35.16195    71.00070     0.04552
     1.80000    34.38547   152.56520     0.05625    35.16960    72.72873     0.04553
     1.90000    34.10478   153.30548     0.05662    35.20069    74.43156     0.04556
     2.00000    33.81853   153.95609     0.05693    35.25592    75.95047     0.04559
     2.10000    33.50701   154.64795     0.05725    35.32933    77.59139     0.04564
     2.20000    33.17864   155.31715     0.05753    35.42330    79.19401     0.04570
     2.30000    32.81887   156.02333     0.05780    35.54052    80.89963     0.04578
     2.40000    32.45382   156.65091     0.05801    35.67329    82.41130     0.04586
     2.50000    32.05343   157.31596     0.05820    35.82955    84.01187     0.04596
     2.60000    31.64944   157.90951     0.05834    35.99477    85.42021     0.04606
     2.70000    31.18618   158.59377     0.05847    36.19286    87.03292     0.04619
     2.80000    30.71806   159.21110     0.05853    36.39596    88.44904     0.04631
     2.90000    30.22609   159.81722     0.05855    36.61075    89.80027     0.04645
     3.00000    29.68479   160.46402     0.05853    36.84834    91.19958     0.04660
     3.10000    29.11489   161.10379     0.05846    37.09536    92.52264     0.04675
     3.20000    28.48700   161.78864     0.05833    37.36407    93.87243     0.04693
     3.30000    27.85573   162.42540     0.05814    37.62407    95.03836     0.04709
     3.40000    27.12834   163.16502     0.05789    37.91779    96.31360     0.04728
     3.50000    26.39580   163.86794     0.05757    38.19845    97.40762     0.04746
     3.60000    25.58964   164.64054     0.05718    38.49463    98.50048     0.04765
     3.70000    24.70216   165.49657     0.05670    38.80458    99.57788     0.04784
     3.80000    23.76705   166.40045     0.05614    39.11080   100.55676     0.04804
     3.90000    22.73895   167.42896     0.05547    39.42661   101.50437     0.04823
     4.00000    21.60922   168.62001     0.05469    39.74949   102.40799     0.04843
     4.10000    20.41919   169.95680     0.05382    40.06255   103.20344     0.04862
     4.20000    19.11633   171.57513     0.05281    40.37824   103.94283     0.04880
     4.30000    17.69397   173.59250     0.05166    40.69398   104.61568     0.04897
     4.40000    16.09058   176.32090     0.05032    41.01950   105.24822     0.04914
     4.50000    14.36433   180.02342     0.04881    41.33864   105.78516     0.04928
     4.60000    12.54052   185.30974     0.04713    41.64924   106.21929     0.04939
     4.70000    10.57774   193.96983     0.04517    41.96941   106.58381     0.04948
     4.80000     8.78418   208.52925     0.04296    42.28408   106.82843     0.04953
     4.90000     7.80227   232.84195     0.04045    42.59895   106.94461     0.04951
     5.00000     8.88719   263.04231     0.03758    42.91803   106.90602     0.04942
     5.10000    12.90184   285.85291     0.03427    43.25183   106.66858     0.04921
     5.20000    19.95610   298.21794     0.03056    43.60515   106.16274     0.04883
     5.30000    31.57403   304.14925     0.02640    44.02226   105.25363     0.04814
     5.40000    52.50490   305.07863     0.02224    44.61796   103.62789     0.04681
     5.50000    95.85644   296.23740     0.02184    46.09534   100.21562     0.04319
     5.60000   128.12014   262.70756     0.03352    51.87986    97.29244     0.03352
     5.70000   128.13331   262.92474     0.03351    51.86669    97.07526     0.03351
     5.80000   128.14609   263.14217     0.03349    51.85391    96.85783     0.03349
     5.90000   128.15848   263.35985     0.03348    51.84152    96.64015     0.03348
     6.00000   128.17048   263.57776     0.03346    51.82952    96.42224     0.03346
     6.10000   128.18208   263.79590     0.03345    51.81792    96.20410     0.03345
     6.20000   128.19329   264.01427     0.03343    51.80671    95.98573     0.03343
     6.30000   128.20410   264.23286     0.03342    51.79590    95.76714     0.03342
     6.40000   128.21451   264.45166     0.03341    51.78549    95.54834     0.03341
     6.50000   128.22452   264.67067     0.03339    51.77548    95.32933     0.03339
     6.60000   128.23413   264.88988     0.03338    51.76587    95.11012     0.03338
     6.70000   128.24333   265.10928     0.03337    51.75667    94.89072     0.03337
     6.80000   128.25214   265.32888     0.03336    51.74786    94.67112     0.03336
     6.90000   128.26054   265.54865     0.03334    51.73946    94.45135     0.03334
     7.00000   128.26854   265.76861     0.03333    51.73146    94.23139     0.03333
     7.10000   128.27612   265.98873     0.03332    51.72388    94.01127     0.03332
     7.20000   128.28331   266.20902     0.03331    51.71669    93.79098     0.03331
     7.30000   128.29008   266.42947     0.03330    51.70992    93.57053     0.03330
     7.40000   128.29644   266.65007     0.03329    51.70356    93.34993     0.03329
     7.50000   128.30239   266.87081     0.03328    51.69761    93.12919     0.03328
     7.60000   128.30794   267.09169     0.03327    51.69206    92.90831     0.03327
     7.70000   128.31307   267.31270     0.03326    51.68693    92.68730     0.03326
     7.80000   128.31778   267.53384     0.03325    51.68222    92.46616     0.03325
     7.90000   128.32209   267.75510     0.03324    51.67791    92.24490     0.03324
     8.00000   128.32598   267.97647     0.03323    51.67402    92.02353     0.03323
     8.10000   128.32945   268.19795     0.03322    51.67055    91.80205     0.03322
     8.20000   128.33251   268.41953     0.03321    51.66749    91.58047     0.03321
     8.30000   128.33515   268.64120     0.03321    51.66485    91.35880     0.03321
     8.40000   128.33738   268.86296     0.03320    51.66262    91.13704     0.03320
     8.50000   128.33919   269.08480     0.03319    51.66081    90.91520     0.03319
     8.60000   128.34058   269.30671     0.03318    51.65942    90.69329     0.03318
     8.70000   128.34156   269.52869     0.03318    51.65844    90.47131     0.03318
     8.80000   128.34211   269.75073     0.03317    51.65789    90.24927     0.03317
     8.90000   128.34225   269.97282     0.03317    51.65775    90.02718     0.03317
     9.00000   128.34197   270.19496     0.03316    51.65803    89.80504     0.03316
     9.10000   128.34127   270.41714     0.03315    51.65873    89.58286     0.03315
     9.20000   128.34015   270.63936     0.03315    51.65985    89.36064     0.03315
     9.30000   128.33861   270.86160     0.03314    51.66139    89.13840     0.03314
     9.40000   128.33665   271.08386     0.03314    51.66335    88.91614     0.03314
     9.50000   128.33427   271.30614     0.03314    51.66573    88.69386     0.03314
     9.60000   128.33147   271.52842     0.03313    51.66853    88.47158     0.03313
     9.70000   128.32826   271.75070     0.03313    51.67174    88.24930     0.03313
     9.80000   128.32462   271.97298     0.03313    51.67538    88.02702     0.03313
     9.90000   128.32056   272.19525     0.03312    51.67944    87.80475     0.03312
    10.00000   128.31608   272.41749     0.03312    51.68392    87.58251     0.03312
    10.10000   128.31119   272.63971     0.03312    51.68881    87.36029     0.03312
    10.20000   128.30587   272.86190     0.03312    51.69413    87.13810     0.03312
    10.30000   128.30014   273.08404     0.03311    51.69986    86.91596     0.03311
    10.40000   128.29398   273.30614     0.03311    51.70602    86.69386     0.03311
    10.50000   128.28741   273.52819     0.03311    51.71259    86.47181     0.03311
    10.60000   128.28043   273.75018     0.03311    51.71957    86.24982     0.03311
    10.70000   128.27302   273.97210     0.03311    51.72698    86.02790     0.03311
    10.80000   128.26520   274.19395     0.03311    51.73480    85.80605     0.03311
    10.90000   128.25696   274.41572     0.03311    51.74304    85.58428     0.03311
    11.00000   128.24830   274.63741     0.03311    51.75170    85.36259     0.03311
    11.10000   128.23923   274.85900     0.03311    51.76077    85.14100     0.03311
    11.20000   128.22975   275.08050     0.03311    51.77025    84.91950     0.03311
    11.30000   128.21985   275.30189     0.03311    51.78015    84.69811     0.03311
    11.40000   128.20954   275.52316     0.03312    51.79046    84.47684     0.03312
    11.50000   128.19881   275.74432     0.03312    51.80119    84.25568     0.03312
    11.60000   128.18768   275.96535     0.03312    51.81232    84.03465     0.03312
    11.70000   128.17613   276.18626     0.03312    51.82387    83.81374     0.03312
    11.80000   128.16418   276.40702     0.03313    51.83582    83.59298     0.03313
    11.90000   128.15181   276.62764     0.03313    51.84819    83.37236     0.03313
    12.00000   128.13904   276.84811     0.03313    51.86096    83.15189     0.03313
    12.10000   128.12585   277.06843     0.03314    51.87415    82.93157     0.03314
    12.20000   128.11227   277.28858     0.03314    51.88773    82.71142     0.03314
    12.30000   128.09828   277.50856     0.03314    51.90172    82.49144     0.03314
    12.40000   128.08388   277.72836     0.03315    51.91612    82.27164     0.03315
    12.50000   128.06908   277.94798     0.03315    51.93092    82.05202     0.03315
    12.60000   128.05388   278.16742     0.03316    51.94612    81.83258     0.03316
    12.70000   128.03828   278.38666     0.03317    51.96172    81.61334     0.03317
    12.80000   128.02228   278.60570     0.03317    51.97772    81.39430     0.03317
    12.90000   128.00589   278.82453     0.03318    51.99411    81.17547     0.03318
    13.00000   127.98909   279.04315     0.03318    52.01091    80.95685     0.03318
    13.10000   127.97190   279.26156     0.03319    52.02810    80.73844     0.03319
    13.20000   127.95432   279.47974     0.03320    52.04568    80.52026     0.03320
    13.30000   127.93635   279.69768     0.03321    52.06365    80.30232     0.03321
    13.40000   127.91798   279.91539     0.03321    52.08202    80.08461     0.03321
    13.50000   127.89923   280.13286     0.03322    52.10077    79.86714     0.03322
    13.60000   127.88009   280.35008     0.03323    52.11991    79.64992     0.03323
    13.70000   127.86056   280.56705     0.03324    52.13944    79.43295     0.03324
    13.80000   127.84065   280.78376     0.03325    52.15935    79.21624     0.03325
    13.90000   127.82035   281.00020     0.03326    52.17965    78.99980     0.03326
    14.00000   127.79967   281.21637     0.03327    52.20033    78.78363     0.03327
    14.10000   127.77862   281.43226     0.03328    52.22138    78.56774     0.03328
    14.20000   127.75719   281.64788     0.03329    52.24281    78.35212     0.03329
    14.30000   127.73538   281.86320     0.03330    52.26462    78.13680     0.03330
    14.40000   127.71319   282.07823     0.03331    52.28681    77.92177     0.03331
    14.50000   127.69064   282.29296     0.03332    52.30936    77.70704     0.03332
    14.60000   127.66771   282.50739     0.03333    52.33229    77.49261     0.03333
    14.70000   127.64441   282.72151     0.03334    52.35559    77.27849     0.03334
    14.80000   127.62075   282.93531     0.03335    52.37925    77.06469     0.03335
    14.90000   127.59673   283.14880     0.03337    52.40327    76.85120     0.03337
    15.00000   127.57234   283.36196     0.03338    52.42766    76.63804     0.03338
    15.10000   127.54759   283.57479     0.03339    52.45241    76.42521     0.03339
    15.20000   127.52248   283.78728     0.03340    52.47752    76.21272     0.03340
    15.30000   127.49701   283.99944     0.03342    52.50299    76.00056     0.03342
    15.40000   127.47119   284.21125     0.03343    52.52881    75.78875     0.03343
    15.50000   127.44502   284.42270     0.03344    52.55498    75.57730     0.03344
    15.60000   127.41850   284.63381     0.03346    52.58150    75.36619     0.03346
    15.70000   127.39163   284.84455     0.03347    52.60837    75.15545     0.03347
    15.80000   127.36441   285.05493     0.03349    52.63559    74.94507     0.03349
    15.90000   127.33685   285.26494     0.03350    52.66315    74.73506     0.03350
    16.00000   127.30895   285.47458     0.03352    52.69105    74.52542     0.03352
    16.10000   127.28071   285.68384     0.03353    52.71929    74.31616     0.03353
    16.20000   127.25213   285.89271     0.03355    52.74787    74.10729     0.03355
    16.30000   127.22322   286.10120     0.03357    52.77678    73.89880     0.03357
    16.40000   127.19397   286.30930     0.03358    52.80603    73.69070     0.03358
    16.50000   127.16440   286.51700     0.03360    52.83560    73.48300     0.03360
    16.60000   127.13449   286.72430     0.03362    52.86551    73.27570     0.03362
    16.70000   127.10427   286.93119     0.03363    52.89573    73.06881     0.03363
    16.80000   127.07372   287.13768     0.03365    52.92628    72.86232     0.03365
    16.90000   127.04284   287.34375     0.03367    52.95716    72.65625     0.03367
    17.00000   127.01165   287.54941     0.03369    52.98835    72.45059     0.03369
    17.10000   126.98015   287.75464     0.03371    53.01985    72.24536     0.03371
    17.20000   126.94833   287.95945     0.03373    53.05167    72.04055     0.03373
    17.30000   126.91620   288.16383     0.03374    53.08380    71.83617     0.03374
    17.40000   126.88376   288.36778     0.03376    53.11624    71.63222     0.03376
    17.50000   126.85102   288.57129     0.03378    53.14898    71.42871     0.03378
    17.60000   126.81797   288.77437     0.03380    53.18203    71.22563     0.03380
    17.70000   126.78463   288.97699     0.03382    53.21537    71.02301     0.03382
    17.80000   126.75098   289.17918     0.03384    53.24902    70.82082     0.03384
    17.90000   126.71704   289.38091     0.03387    53.28296    70.61909     0.03387
    18.00000   126.68281   289.58218     0.03389    53.31719    70.41782     0.03389
    18.10000   126.64828   289.78300     0.03391    53.35172    70.21700     0.03391
    18.20000   126.61347   289.98336     0.03393    53.38653    70.01664     0.03393
    18.30000   126.57838   290.18325     0.03395    53.42162    69.81675     0.03395
    18.40000   126.54300   290.38268     0.03397    53.45700    69.61732     0.03397
    18.50000   126.50734   290.58163     0.03400    53.49266    69.41837     0.03400
    18.60000   126.47140   290.78011     0.03402    53.52860    69.21989     0.03402
    18.70000   126.43519   290.97811     0.03404    53.56481    69.02189     0.03404
    18.80000   126.39871   291.17564     0.03406    53.60129    68.82436     0.03406
    18.90000   126.36195   291.37268     0.03409    53.63805    68.62732     0.03409
    19.00000   126.32494   291.56924     0.03411    53.67506    68.43076     0.03411
    19.10000   126.28765   291.76530     0.03414    53.71235    68.23470     0.03414
    19.20000   126.25011   291.96088     0.03416    53.74989    68.03912     0.03416
    19.30000   126.21231   292.15596     0.03419    53.78769    67.84404     0.03419
    19.40000   126.17425   292.35055     0.03421    53.82575    67.64945     0.03421
    19.50000   126.13594   292.54464     0.03424    53.86406    67.45536     0.03424
    19.60000   126.09738   292.73822     0.03426    53.90262    67.26178     0.03426
    19.70000   126.05857   292.93131     0.03429    53.94143    67.06869     0.03429
    19.80000   126.01951   293.12388     0.03431    53.98049    66.87612     0.03431
    19.90000   125.98021   293.31595     0.03434    54.01979    66.68405     0.03434
    20.00000   125.94068   293.50751     0.03436    54.05932    66.49249     0.03436
    20.10000   125.90090   293.69855     0.03439    54.09910    66.30145     0.03439
    20.20000   125.86090   293.88908     0.03442    54.13910    66.11092     0.03442
    20.30000   125.82066   294.07909     0.03445    54.17934    65.92091     0.03445
    20.40000   125.78019   294.26858     0.03447    54.21981    65.73142     0.03447
    20.50000   125.73950   294.45755     0.03450    54.26050    65.54245     0.03450
    20.60000   125.69858   294.64600     0.03453    54.30142    65.35400     0.03453
    20.70000   125.65744   294.83392     0.03456    54.34256    65.16608     0.03456
    20.80000   125.61609   295.02131     0.03459    54.38391    64.97869     0.03459
    20.90000   125.57452   295.20818     0.03461    54.42548    64.79182     0.03461
    21.00000   125.53273   295.39451     0.03464    54.46727    64.60549     0.03464
    21.10000   125.49074   295.58032     0.03467    54.50926    64.41968     0.03467
    21.20000   125.44854   295.76559     0.03470    54.55146    64.23441     0.03470
    21.30000   125.40614   295.95032     0.03473    54.59386    64.04968     0.03473
    21.40000   125.36353   296.13452     0.03476    54.63647    63.86548     0.03476
    21.50000   125.32073   296.31818     0.03479    54.67927    63.68182     0.03479
    21.60000   125.27773   296.50130     0.03482    54.72227    63.49870     0.03482
    21.70000   125.23453   296.68388     0.03485    54.76547    63.31612     0.03485
    21.80000   125.19115   296.86591     0.03489    54.80885    63.13409     0.03489
    21.90000   125.14758   297.04741     0.03492    54.85242    62.95259     0.03492
    22.00000   125.10382   297.22836     0.03495    54.89618    62.77164     0.03495
    22.10000   125.05988   297.40876     0.03498    54.94012    62.59124     0.03498
    22.20000   125.01576   297.58862     0.03501    54.98424    62.41138     0.03501
    22.30000   124.97146   297.76793     0.03504    55.02854    62.23207     0.03504
    22.40000   124.92699   297.94669     0.03508    55.07301    62.05331     0.03508
    22.50000   124.88234   298.12490     0.03511    55.11766    61.87510     0.03511
    22.60000   124.83753   298.30256     0.03514    55.16247    61.69744     0.03514
    22.70000   124.79255   298.47966     0.03518    55.20745    61.52034     0.03518
    22.80000   124.74740   298.65622     0.03521    55.25260    61.34378     0.03521
    22.90000   124.70210   298.83222     0.03524    55.29790    61.16778     0.03524
    23.00000   124.65663   299.00767     0.03528    55.34337    60.99233     0.03528
    23.10000   124.61101   299.18257     0.03531    55.38899    60.81743     0.03531
    23.20000   124.56523   299.35691     0.03535    55.43477    60.64309     0.03535
    23.30000   124.51931   299.53070     0.03538    55.48069    60.46930     0.03538
