 # applied field (T), theta (degree), phi (degree), abs [muB/unitcell], abs [T]
       0.00000000       0.00000000       0.00000000      45.26359219       1.52349713
       0.10000000       0.34143232      45.00000000      45.26359448       1.52349721
       0.20000000       0.68286542      45.00000000      45.26360134       1.52349744
       0.30000000       1.08108755      45.00000000      45.26361464       1.52349789
       0.40000000       1.42252507      45.00000000      45.26363127       1.52349845
       0.50000000       1.76396587      45.00000000      45.26365248       1.52349916
       0.60000000       2.10541074      45.00000000      45.26367829       1.52350003
       0.70000000       2.44686048      45.00000000      45.26370869       1.52350106
       0.80000000       2.84510719      45.00000000      45.26374875       1.52350240
       0.90000000       3.18657016      45.00000000      45.26378902       1.52350376
       1.00000000       3.52804047      45.00000000      45.26383393       1.52350527
       1.10000000       3.86951891      45.00000000      45.26388350       1.52350694
       1.20000000       4.26780333      45.00000000      45.26394537       1.52350902
       1.30000000       4.60930209      45.00000000      45.26400494       1.52351103
       1.40000000       4.95081146      45.00000000      45.26406923       1.52351319
       1.50000000       5.29233222      45.00000000      45.26413826       1.52351551
       1.60000000       5.69067020      45.00000000      45.26422232       1.52351834
       1.70000000       6.03221832      45.00000000      45.26430155       1.52352101
       1.80000000       6.37378030      45.00000000      45.26438558       1.52352384
       1.90000000       6.77216955      45.00000000      45.26448680       1.52352725
       2.00000000       7.11376421      45.00000000      45.26458121       1.52353042
       2.10000000       7.51219378      45.00000000      45.26469429       1.52353423
       2.20000000       7.85382473      45.00000000      45.26479921       1.52353776
       2.30000000       8.19547363      45.00000000      45.26490909       1.52354146
       2.40000000       8.59396967      45.00000000      45.26503989       1.52354586
       2.50000000       8.93566011      45.00000000      45.26516048       1.52354992
       2.60000000       9.33420678      45.00000000      45.26530357       1.52355474
       2.70000000       9.73278246      45.00000000      45.26545327       1.52355978
       2.80000000      10.07454376      45.00000000      45.26559058       1.52356440
       2.90000000      10.47317643      45.00000000      45.26575284       1.52356986
       3.00000000      10.81498823      45.00000000      45.26590125       1.52357485
       3.10000000      11.21368196      45.00000000      45.26607626       1.52358074
       3.20000000      11.61241026      45.00000000      45.26625815       1.52358687
       3.30000000      12.01117432      45.00000000      45.26644695       1.52359322
       3.40000000      12.35310211      45.00000000      45.26661878       1.52359900
       3.50000000      12.75193554      45.00000000      45.26682071       1.52360580
       3.60000000      13.15080800      45.00000000      45.26702971       1.52361284
       3.70000000      13.54972061      45.00000000      45.26724582       1.52362011
       3.80000000      13.94867448      45.00000000      45.26746909       1.52362763
       3.90000000      14.34767074      45.00000000      45.26769958       1.52363538
       4.00000000      14.74671046      45.00000000      45.26793732       1.52364338
       4.10000000      15.20271029      45.00000000      45.26821260       1.52365265
       4.20000000      15.60184689      45.00000000      45.26846589       1.52366118
       4.30000000      16.00103032      45.00000000      45.26872654       1.52366995
       4.40000000      16.45719872      45.00000000      45.26902777       1.52368009
       4.50000000      16.85648610      45.00000000      45.26930419       1.52368939
       4.60000000      17.31277617      45.00000000      45.26962326       1.52370013
       4.70000000      17.71217212      45.00000000      45.26991553       1.52370997
       4.80000000      18.16858907      45.00000000      45.27025253       1.52372131
       4.90000000      18.62507581      45.00000000      45.27059905       1.52373297
       5.00000000      19.08163375      45.00000000      45.27095510       1.52374496
       5.10000000      19.53826424      45.00000000      45.27132068       1.52375726
       5.20000000      19.99496861      45.00000000      45.27169575       1.52376989
       5.30000000      20.45174815      45.00000000      45.27208030       1.52378283
       5.40000000      20.96563019      45.00000000      45.27251818       1.52379757
       5.50000000      21.42257369      45.00000000      45.27292261       1.52381118
       5.60000000      21.93664345      45.00000000      45.27338252       1.52382666
       5.70000000      22.45081500      45.00000000      45.27385390       1.52384253
       5.80000000      22.96508984      45.00000000      45.27433660       1.52385877
       5.90000000      23.53655316      45.00000000      45.27488029       1.52387707
       6.00000000      24.05105082      45.00000000      45.27538631       1.52389411
       6.10000000      24.62276525      45.00000000      45.27595526       1.52391326
       6.20000000      25.25173869      45.00000000      45.27659051       1.52393464
       6.30000000      25.82373762      45.00000000      45.27718593       1.52395468
       6.40000000      26.45302767      45.00000000      45.27784925       1.52397700
       6.50000000      27.08248589      45.00000000      45.27852644       1.52399980
       6.60000000      27.76929981      45.00000000      45.27927512       1.52402500
       6.70000000      28.51352195      45.00000000      45.28009802       1.52405269
       6.80000000      90.00000000      45.00000000      45.30269021       1.52481311
       6.90000000      90.00000000      45.00000000      45.30273649       1.52481467
       7.00000000      90.00000000      45.00000000      45.30278277       1.52481622
       7.10000000      90.00000000      45.00000000      45.30282906       1.52481778
       7.20000000      90.00000000      45.00000000      45.30287536       1.52481934
       7.30000000      90.00000000      45.00000000      45.30292166       1.52482090
       7.40000000      90.00000000      45.00000000      45.30296797       1.52482246
       7.50000000      90.00000000      45.00000000      45.30301428       1.52482402
       7.60000000      90.00000000      45.00000000      45.30306060       1.52482558
       7.70000000      90.00000000      45.00000000      45.30310692       1.52482714
       7.80000000      90.00000000      45.00000000      45.30315325       1.52482869
       7.90000000      90.00000000      45.00000000      45.30319959       1.52483025
       8.00000000      90.00000000      45.00000000      45.30324593       1.52483181
       8.10000000      90.00000000      45.00000000      45.30329228       1.52483337
       8.20000000      90.00000000      45.00000000      45.30333863       1.52483493
       8.30000000      90.00000000      45.00000000      45.30338499       1.52483649
       8.40000000      90.00000000      45.00000000      45.30343136       1.52483806
       8.50000000      90.00000000      45.00000000      45.30347773       1.52483962
       8.60000000      90.00000000      45.00000000      45.30352411       1.52484118
       8.70000000      90.00000000      45.00000000      45.30357049       1.52484274
       8.80000000      90.00000000      45.00000000      45.30361688       1.52484430
       8.90000000      90.00000000      45.00000000      45.30366328       1.52484586
       9.00000000      90.00000000      45.00000000      45.30370968       1.52484742
       9.10000000      90.00000000      45.00000000      45.30375608       1.52484898
       9.20000000      90.00000000      45.00000000      45.30380250       1.52485055
       9.30000000      90.00000000      45.00000000      45.30384892       1.52485211
       9.40000000      90.00000000      45.00000000      45.30389534       1.52485367
       9.50000000      90.00000000      45.00000000      45.30394177       1.52485523
       9.60000000      90.00000000      45.00000000      45.30398821       1.52485680
       9.70000000      90.00000000      45.00000000      45.30403465       1.52485836
       9.80000000      90.00000000      45.00000000      45.30408110       1.52485992
       9.90000000      90.00000000      45.00000000      45.30412755       1.52486149
      10.00000000      90.00000000      45.00000000      45.30417401       1.52486305
      10.10000000      90.00000000      45.00000000      45.30422048       1.52486462
      10.20000000      90.00000000      45.00000000      45.30426695       1.52486618
      10.30000000      90.00000000      45.00000000      45.30431343       1.52486774
      10.40000000      90.00000000      45.00000000      45.30435991       1.52486931
      10.50000000      90.00000000      45.00000000      45.30440640       1.52487087
      10.60000000      90.00000000      45.00000000      45.30445290       1.52487244
      10.70000000      90.00000000      45.00000000      45.30449940       1.52487400
      10.80000000      90.00000000      45.00000000      45.30454591       1.52487557
      10.90000000      90.00000000      45.00000000      45.30459242       1.52487713
      11.00000000      90.00000000      45.00000000      45.30463894       1.52487870
      11.10000000      90.00000000      45.00000000      45.30468546       1.52488027
      11.20000000      90.00000000      45.00000000      45.30473199       1.52488183
      11.30000000      90.00000000      45.00000000      45.30477853       1.52488340
      11.40000000      90.00000000      45.00000000      45.30482507       1.52488497
      11.50000000      90.00000000      45.00000000      45.30487162       1.52488653
      11.60000000      90.00000000      45.00000000      45.30491818       1.52488810
      11.70000000      90.00000000      45.00000000      45.30496474       1.52488967
      11.80000000      90.00000000      45.00000000      45.30501130       1.52489123
      11.90000000      90.00000000      45.00000000      45.30505788       1.52489280
      12.00000000      90.00000000      45.00000000      45.30510445       1.52489437
      12.10000000      90.00000000      45.00000000      45.30515104       1.52489594
      12.20000000      90.00000000      45.00000000      45.30519763       1.52489750
      12.30000000      90.00000000      45.00000000      45.30524422       1.52489907
      12.40000000      90.00000000      45.00000000      45.30529083       1.52490064
      12.50000000      90.00000000      45.00000000      45.30533743       1.52490221
      12.60000000      90.00000000      45.00000000      45.30538405       1.52490378
      12.70000000      90.00000000      45.00000000      45.30543067       1.52490535
      12.80000000      90.00000000      45.00000000      45.30547729       1.52490692
      12.90000000      90.00000000      45.00000000      45.30552393       1.52490849
      13.00000000      90.00000000      45.00000000      45.30557056       1.52491006
      13.10000000      90.00000000      45.00000000      45.30561721       1.52491163
      13.20000000      90.00000000      45.00000000      45.30566386       1.52491320
      13.30000000      90.00000000      45.00000000      45.30571051       1.52491477
      13.40000000      90.00000000      45.00000000      45.30575717       1.52491634
      13.50000000      90.00000000      45.00000000      45.30580384       1.52491791
      13.60000000      90.00000000      45.00000000      45.30585051       1.52491948
      13.70000000      90.00000000      45.00000000      45.30589719       1.52492105
      13.80000000      90.00000000      45.00000000      45.30594388       1.52492262
      13.90000000      90.00000000      45.00000000      45.30599057       1.52492419
      14.00000000      90.00000000      45.00000000      45.30603727       1.52492577
      14.10000000      90.00000000      45.00000000      45.30608397       1.52492734
      14.20000000      90.00000000      45.00000000      45.30613068       1.52492891
      14.30000000      90.00000000      45.00000000      45.30617739       1.52493048
      14.40000000      90.00000000      45.00000000      45.30622411       1.52493205
      14.50000000      90.00000000      45.00000000      45.30627084       1.52493363
      14.60000000      90.00000000      45.00000000      45.30631757       1.52493520
      14.70000000      90.00000000      45.00000000      45.30636431       1.52493677
      14.80000000      90.00000000      45.00000000      45.30641106       1.52493835
      14.90000000      90.00000000      45.00000000      45.30645781       1.52493992
      15.00000000      90.00000000      45.00000000      45.30650456       1.52494149
      15.10000000      90.00000000      45.00000000      45.30655133       1.52494307
      15.20000000      90.00000000      45.00000000      45.30659809       1.52494464
      15.30000000      90.00000000      45.00000000      45.30664487       1.52494622
      15.40000000      90.00000000      45.00000000      45.30669165       1.52494779
      15.50000000      90.00000000      45.00000000      45.30673843       1.52494937
      15.60000000      90.00000000      45.00000000      45.30678523       1.52495094
      15.70000000      90.00000000      45.00000000      45.30683203       1.52495252
      15.80000000      90.00000000      45.00000000      45.30687883       1.52495409
      15.90000000      90.00000000      45.00000000      45.30692564       1.52495567
      16.00000000      90.00000000      45.00000000      45.30697246       1.52495724
      16.10000000      90.00000000      45.00000000      45.30701928       1.52495882
      16.20000000      90.00000000      45.00000000      45.30706611       1.52496039
      16.30000000      90.00000000      45.00000000      45.30711294       1.52496197
      16.40000000      90.00000000      45.00000000      45.30715978       1.52496355
      16.50000000      90.00000000      45.00000000      45.30720663       1.52496512
      16.60000000      90.00000000      45.00000000      45.30725348       1.52496670
      16.70000000      90.00000000      45.00000000      45.30730034       1.52496828
      16.80000000      90.00000000      45.00000000      45.30734720       1.52496986
      16.90000000      90.00000000      45.00000000      45.30739407       1.52497143
      17.00000000      90.00000000      45.00000000      45.30744094       1.52497301
      17.10000000      90.00000000      45.00000000      45.30748783       1.52497459
      17.20000000      90.00000000      45.00000000      45.30753471       1.52497617
      17.30000000      90.00000000      45.00000000      45.30758161       1.52497775
      17.40000000      90.00000000      45.00000000      45.30762851       1.52497932
      17.50000000      90.00000000      45.00000000      45.30767541       1.52498090
      17.60000000      90.00000000      45.00000000      45.30772232       1.52498248
      17.70000000      90.00000000      45.00000000      45.30776924       1.52498406
      17.80000000      90.00000000      45.00000000      45.30781617       1.52498564
      17.90000000      90.00000000      45.00000000      45.30786310       1.52498722
      18.00000000      90.00000000      45.00000000      45.30791003       1.52498880
      18.10000000      90.00000000      45.00000000      45.30795697       1.52499038
      18.20000000      90.00000000      45.00000000      45.30800392       1.52499196
      18.30000000      90.00000000      45.00000000      45.30805087       1.52499354
      18.40000000      90.00000000      45.00000000      45.30809783       1.52499512
      18.50000000      90.00000000      45.00000000      45.30814480       1.52499670
      18.60000000      90.00000000      45.00000000      45.30819177       1.52499828
      18.70000000      90.00000000      45.00000000      45.30823875       1.52499986
      18.80000000      90.00000000      45.00000000      45.30828573       1.52500145
      18.90000000      90.00000000      45.00000000      45.30833272       1.52500303
      19.00000000      90.00000000      45.00000000      45.30837972       1.52500461
      19.10000000      90.00000000      45.00000000      45.30842672       1.52500619
      19.20000000      90.00000000      45.00000000      45.30847373       1.52500777
      19.30000000      90.00000000      45.00000000      45.30852074       1.52500936
      19.40000000      90.00000000      45.00000000      45.30856776       1.52501094
      19.50000000      90.00000000      45.00000000      45.30861478       1.52501252
      19.60000000      90.00000000      45.00000000      45.30866182       1.52501410
      19.70000000      90.00000000      45.00000000      45.30870885       1.52501569
      19.80000000      90.00000000      45.00000000      45.30875590       1.52501727
      19.90000000      90.00000000      45.00000000      45.30880295       1.52501885
      20.00000000      90.00000000      45.00000000      45.30885000       1.52502044
      20.10000000      90.00000000      45.00000000      45.30889706       1.52502202
      20.20000000      90.00000000      45.00000000      45.30894413       1.52502361
      20.30000000      90.00000000      45.00000000      45.30899120       1.52502519
      20.40000000      90.00000000      45.00000000      45.30903828       1.52502677
      20.50000000      90.00000000      45.00000000      45.30908537       1.52502836
      20.60000000      90.00000000      45.00000000      45.30913246       1.52502994
      20.70000000      90.00000000      45.00000000      45.30917956       1.52503153
      20.80000000      90.00000000      45.00000000      45.30922666       1.52503312
      20.90000000      90.00000000      45.00000000      45.30927377       1.52503470
      21.00000000      90.00000000      45.00000000      45.30932089       1.52503629
      21.10000000      90.00000000      45.00000000      45.30936801       1.52503787
      21.20000000      90.00000000      45.00000000      45.30941514       1.52503946
      21.30000000      90.00000000      45.00000000      45.30946227       1.52504105
      21.40000000      90.00000000      45.00000000      45.30950941       1.52504263
      21.50000000      90.00000000      45.00000000      45.30955655       1.52504422
      21.60000000      90.00000000      45.00000000      45.30960371       1.52504581
      21.70000000      90.00000000      45.00000000      45.30965086       1.52504739
      21.80000000      90.00000000      45.00000000      45.30969803       1.52504898
      21.90000000      90.00000000      45.00000000      45.30974520       1.52505057
      22.00000000      90.00000000      45.00000000      45.30979237       1.52505216
      22.10000000      90.00000000      45.00000000      45.30983956       1.52505374
      22.20000000      90.00000000      45.00000000      45.30988674       1.52505533
      22.30000000      90.00000000      45.00000000      45.30993394       1.52505692
      22.40000000      90.00000000      45.00000000      45.30998114       1.52505851
      22.50000000      90.00000000      45.00000000      45.31002834       1.52506010
      22.60000000      90.00000000      45.00000000      45.31007556       1.52506169
      22.70000000      90.00000000      45.00000000      45.31012277       1.52506328
      22.80000000      90.00000000      45.00000000      45.31017000       1.52506487
      22.90000000      90.00000000      45.00000000      45.31021723       1.52506646
      23.00000000      90.00000000      45.00000000      45.31026446       1.52506805
