 # applied field (T), theta (degree), phi (degree), abs [muB/unitcell], abs [T]
       0.00000000       0.00000000       0.00000000      42.23677200       1.42161941
       0.10000000       0.39915507      45.00000000      42.23677722       1.42161958
       0.20000000       0.79831211      45.00000000      42.23679287       1.42162011
       0.30000000       1.19747310      45.00000000      42.23681895       1.42162099
       0.40000000       1.59664002      45.00000000      42.23685548       1.42162222
       0.50000000       1.99581484      45.00000000      42.23690244       1.42162380
       0.60000000       2.39499953      45.00000000      42.23695984       1.42162573
       0.70000000       2.85111467      45.00000000      42.23703735       1.42162834
       0.80000000       3.25032714      45.00000000      42.23711701       1.42163102
       0.90000000       3.64955566      45.00000000      42.23720711       1.42163405
       1.00000000       4.04880219      45.00000000      42.23730767       1.42163744
       1.10000000       4.44806868      45.00000000      42.23741869       1.42164117
       1.20000000       4.90428973      45.00000000      42.23755687       1.42164583
       1.30000000       5.30360557      45.00000000      42.23769018       1.42165031
       1.40000000      90.00000000      80.50700889      42.24418463       1.42186890
       1.50000000      90.00000000      10.35618825      42.24440640       1.42187637
       1.60000000      90.00000000      10.35664234      42.24444271       1.42187759
       1.70000000      90.00000000      11.21992760      42.24468010       1.42188558
       1.80000000      90.00000000      77.91668199      42.24493211       1.42189406
       1.90000000      90.00000000      12.08375403      42.24496950       1.42189532
       2.00000000      90.00000000      77.05275169      42.24523619       1.42190430
       2.10000000      90.00000000      13.81086307      42.24551651       1.42191373
       2.20000000      90.00000000      13.81128055      42.24555486       1.42191502
       2.30000000      90.00000000      14.67501358      42.24584870       1.42192491
       2.40000000      90.00000000      74.46111902      42.24615498       1.42193522
       2.50000000      90.00000000      74.46072054      42.24619417       1.42193654
       2.60000000      90.00000000      16.40327798      42.24651260       1.42194726
       2.70000000      90.00000000      72.73257690      42.24684206       1.42195835
       2.80000000      90.00000000      18.13172030      42.24718176       1.42196978
       2.90000000      90.00000000      18.13208935      42.24722198       1.42197114
       3.00000000      90.00000000      71.00346645      42.24757136       1.42198290
       3.10000000      90.00000000      19.86113908      42.24792918       1.42199494
       3.20000000      90.00000000      70.13851215      42.24796995       1.42199631
       3.30000000      90.00000000      20.72624827      42.24833548       1.42200862
       3.40000000      90.00000000      68.40882299      42.24870743       1.42202113
       3.50000000      90.00000000      21.59150495      42.24874862       1.42202252
       3.60000000      90.00000000      22.45659407      42.24912605       1.42203522
       3.70000000      90.00000000      23.32185597      42.24950760       1.42204807
       3.80000000      90.00000000      24.18729195      42.24989206       1.42206101
       3.90000000      90.00000000      65.81241235      42.24993370       1.42206241
       4.00000000      90.00000000      25.05318727      42.25031987       1.42207541
       4.10000000      90.00000000      25.91896125      42.25070632       1.42208841
       4.20000000      90.00000000      26.78490867      42.25109166       1.42210138
       4.30000000      90.00000000      63.21482912      42.25113354       1.42210279
       4.40000000      90.00000000      27.65127862      42.25151640       1.42211568
       4.50000000      90.00000000      28.51755550      42.25189526       1.42212843
       4.60000000      90.00000000      29.38399824      42.25226865       1.42214100
       4.70000000      90.00000000      59.74939725      42.25263507       1.42215333
       4.80000000      90.00000000      58.88263586      42.25299302       1.42216538
       4.90000000      90.00000000      31.98427669      42.25334101       1.42217709
       5.00000000      90.00000000      57.14866609      42.25367753       1.42218842
       5.10000000      90.00000000      56.28147149      42.25400112       1.42219931
       5.20000000      90.00000000      34.58585241      42.25431037       1.42220972
       5.30000000      90.00000000      35.45329683      42.25460387       1.42221960
       5.40000000      90.00000000      52.81160843      42.25509679       1.42223619
       5.50000000      90.00000000      38.05615056      42.25533548       1.42224422
       5.60000000      90.00000000      49.34027956      42.25584147       1.42226125
       5.70000000      90.00000000      43.26381829      42.25614029       1.42227131
       5.80000000      90.00000000      45.00000000      42.25623128       1.42227437
       5.90000000      90.00000000      45.00000000      42.25627265       1.42227577
       6.00000000      90.00000000      45.00000000      42.25631403       1.42227716
       6.10000000      90.00000000      45.00000000      42.25635541       1.42227855
       6.20000000      90.00000000      45.00000000      42.25639679       1.42227995
       6.30000000      90.00000000      45.00000000      42.25643818       1.42228134
       6.40000000      90.00000000      45.00000000      42.25647957       1.42228273
       6.50000000      90.00000000      45.00000000      42.25652097       1.42228413
       6.60000000      90.00000000      45.00000000      42.25656237       1.42228552
       6.70000000      90.00000000      45.00000000      42.25660378       1.42228691
       6.80000000      90.00000000      45.00000000      42.25664519       1.42228831
       6.90000000      90.00000000      45.00000000      42.25668661       1.42228970
       7.00000000      90.00000000      45.00000000      42.25672803       1.42229109
       7.10000000      90.00000000      45.00000000      42.25676945       1.42229249
       7.20000000      90.00000000      45.00000000      42.25681088       1.42229388
       7.30000000      90.00000000      45.00000000      42.25685232       1.42229528
       7.40000000      90.00000000      45.00000000      42.25689375       1.42229667
       7.50000000      90.00000000      45.00000000      42.25693520       1.42229807
       7.60000000      90.00000000      45.00000000      42.25697664       1.42229946
       7.70000000      90.00000000      45.00000000      42.25701810       1.42230086
       7.80000000      90.00000000      45.00000000      42.25705955       1.42230225
       7.90000000      90.00000000      45.00000000      42.25710101       1.42230365
       8.00000000      90.00000000      45.00000000      42.25714248       1.42230504
       8.10000000      90.00000000      45.00000000      42.25718395       1.42230644
       8.20000000      90.00000000      45.00000000      42.25722542       1.42230784
       8.30000000      90.00000000      45.00000000      42.25726690       1.42230923
       8.40000000      90.00000000      45.00000000      42.25730839       1.42231063
       8.50000000      90.00000000      45.00000000      42.25734987       1.42231202
       8.60000000      90.00000000      45.00000000      42.25739137       1.42231342
       8.70000000      90.00000000      45.00000000      42.25743286       1.42231482
       8.80000000      90.00000000      45.00000000      42.25747437       1.42231622
       8.90000000      90.00000000      45.00000000      42.25751587       1.42231761
       9.00000000      90.00000000      45.00000000      42.25755738       1.42231901
       9.10000000      90.00000000      45.00000000      42.25759890       1.42232041
       9.20000000      90.00000000      45.00000000      42.25764042       1.42232180
       9.30000000      90.00000000      45.00000000      42.25768194       1.42232320
       9.40000000      90.00000000      45.00000000      42.25772347       1.42232460
       9.50000000      90.00000000      45.00000000      42.25776500       1.42232600
       9.60000000      90.00000000      45.00000000      42.25780654       1.42232740
       9.70000000      90.00000000      45.00000000      42.25784808       1.42232879
       9.80000000      90.00000000      45.00000000      42.25788963       1.42233019
       9.90000000      90.00000000      45.00000000      42.25793118       1.42233159
      10.00000000      90.00000000      45.00000000      42.25797274       1.42233299
      10.10000000      90.00000000      45.00000000      42.25801430       1.42233439
      10.20000000      90.00000000      45.00000000      42.25805587       1.42233579
      10.30000000      90.00000000      45.00000000      42.25809744       1.42233719
      10.40000000      90.00000000      45.00000000      42.25813901       1.42233859
      10.50000000      90.00000000      45.00000000      42.25818059       1.42233999
      10.60000000      90.00000000      45.00000000      42.25822217       1.42234139
      10.70000000      90.00000000      45.00000000      42.25826376       1.42234278
      10.80000000      90.00000000      45.00000000      42.25830535       1.42234418
      10.90000000      90.00000000      45.00000000      42.25834695       1.42234558
      11.00000000      90.00000000      45.00000000      42.25838855       1.42234699
      11.10000000      90.00000000      45.00000000      42.25843016       1.42234839
      11.20000000      90.00000000      45.00000000      42.25847177       1.42234979
      11.30000000      90.00000000      45.00000000      42.25851338       1.42235119
      11.40000000      90.00000000      45.00000000      42.25855500       1.42235259
      11.50000000      90.00000000      45.00000000      42.25859663       1.42235399
      11.60000000      90.00000000      45.00000000      42.25863826       1.42235539
      11.70000000      90.00000000      45.00000000      42.25867989       1.42235679
      11.80000000      90.00000000      45.00000000      42.25872153       1.42235819
      11.90000000      90.00000000      45.00000000      42.25876317       1.42235959
      12.00000000      90.00000000      45.00000000      42.25880482       1.42236100
      12.10000000      90.00000000      45.00000000      42.25884647       1.42236240
      12.20000000      90.00000000      45.00000000      42.25888813       1.42236380
      12.30000000      90.00000000      45.00000000      42.25892979       1.42236520
      12.40000000      90.00000000      45.00000000      42.25897145       1.42236660
      12.50000000      90.00000000      45.00000000      42.25901312       1.42236801
      12.60000000      90.00000000      45.00000000      42.25905480       1.42236941
      12.70000000      90.00000000      45.00000000      42.25909648       1.42237081
      12.80000000      90.00000000      45.00000000      42.25913816       1.42237222
      12.90000000      90.00000000      45.00000000      42.25917985       1.42237362
      13.00000000      90.00000000      45.00000000      42.25922154       1.42237502
      13.10000000      90.00000000      45.00000000      42.25926324       1.42237643
      13.20000000      90.00000000      45.00000000      42.25930494       1.42237783
      13.30000000      90.00000000      45.00000000      42.25934665       1.42237923
      13.40000000      90.00000000      45.00000000      42.25938836       1.42238064
      13.50000000      90.00000000      45.00000000      42.25943008       1.42238204
      13.60000000      90.00000000      45.00000000      42.25947180       1.42238345
      13.70000000      90.00000000      45.00000000      42.25951352       1.42238485
      13.80000000      90.00000000      45.00000000      42.25955525       1.42238625
      13.90000000      90.00000000      45.00000000      42.25959698       1.42238766
      14.00000000      90.00000000      45.00000000      42.25963872       1.42238906
      14.10000000      90.00000000      45.00000000      42.25968047       1.42239047
      14.20000000      90.00000000      45.00000000      42.25972221       1.42239187
      14.30000000      90.00000000      45.00000000      42.25976397       1.42239328
      14.40000000      90.00000000      45.00000000      42.25980572       1.42239468
      14.50000000      90.00000000      45.00000000      42.25984749       1.42239609
      14.60000000      90.00000000      45.00000000      42.25988925       1.42239750
      14.70000000      90.00000000      45.00000000      42.25993102       1.42239890
      14.80000000      90.00000000      45.00000000      42.25997280       1.42240031
      14.90000000      90.00000000      45.00000000      42.26001458       1.42240171
      15.00000000      90.00000000      45.00000000      42.26005636       1.42240312
      15.10000000      90.00000000      45.00000000      42.26009815       1.42240453
      15.20000000      90.00000000      45.00000000      42.26013995       1.42240593
      15.30000000      90.00000000      45.00000000      42.26018174       1.42240734
      15.40000000      90.00000000      45.00000000      42.26022355       1.42240875
      15.50000000      90.00000000      45.00000000      42.26026536       1.42241016
      15.60000000      90.00000000      45.00000000      42.26030717       1.42241156
      15.70000000      90.00000000      45.00000000      42.26034898       1.42241297
      15.80000000      90.00000000      45.00000000      42.26039081       1.42241438
      15.90000000      90.00000000      45.00000000      42.26043263       1.42241579
      16.00000000      90.00000000      45.00000000      42.26047446       1.42241719
      16.10000000      90.00000000      45.00000000      42.26051630       1.42241860
      16.20000000      90.00000000      45.00000000      42.26055814       1.42242001
      16.30000000      90.00000000      45.00000000      42.26059998       1.42242142
      16.40000000      90.00000000      45.00000000      42.26064183       1.42242283
      16.50000000      90.00000000      45.00000000      42.26068368       1.42242424
      16.60000000      90.00000000      45.00000000      42.26072554       1.42242564
      16.70000000      90.00000000      45.00000000      42.26076741       1.42242705
      16.80000000      90.00000000      45.00000000      42.26080927       1.42242846
      16.90000000      90.00000000      45.00000000      42.26085115       1.42242987
      17.00000000      90.00000000      45.00000000      42.26089302       1.42243128
      17.10000000      90.00000000      45.00000000      42.26093490       1.42243269
      17.20000000      90.00000000      45.00000000      42.26097679       1.42243410
      17.30000000      90.00000000      45.00000000      42.26101868       1.42243551
      17.40000000      90.00000000      45.00000000      42.26106058       1.42243692
      17.50000000      90.00000000      45.00000000      42.26110248       1.42243833
      17.60000000      90.00000000      45.00000000      42.26114438       1.42243974
      17.70000000      90.00000000      45.00000000      42.26118629       1.42244115
      17.80000000      90.00000000      45.00000000      42.26122820       1.42244256
      17.90000000      90.00000000      45.00000000      42.26127012       1.42244397
      18.00000000      90.00000000      45.00000000      42.26131204       1.42244538
      18.10000000      90.00000000      45.00000000      42.26135397       1.42244680
      18.20000000      90.00000000      45.00000000      42.26139590       1.42244821
      18.30000000      90.00000000      45.00000000      42.26143784       1.42244962
      18.40000000      90.00000000      45.00000000      42.26147978       1.42245103
      18.50000000      90.00000000      45.00000000      42.26152173       1.42245244
      18.60000000      90.00000000      45.00000000      42.26156368       1.42245385
      18.70000000      90.00000000      45.00000000      42.26160563       1.42245527
      18.80000000      90.00000000      45.00000000      42.26164759       1.42245668
      18.90000000      90.00000000      45.00000000      42.26168956       1.42245809
      19.00000000      90.00000000      45.00000000      42.26173153       1.42245950
      19.10000000      90.00000000      45.00000000      42.26177350       1.42246092
      19.20000000      90.00000000      45.00000000      42.26181548       1.42246233
      19.30000000      90.00000000      45.00000000      42.26185746       1.42246374
      19.40000000      90.00000000      45.00000000      42.26189945       1.42246516
      19.50000000      90.00000000      45.00000000      42.26194144       1.42246657
      19.60000000      90.00000000      45.00000000      42.26198344       1.42246798
      19.70000000      90.00000000      45.00000000      42.26202544       1.42246940
      19.80000000      90.00000000      45.00000000      42.26206745       1.42247081
      19.90000000      90.00000000      45.00000000      42.26210946       1.42247222
      20.00000000      90.00000000      45.00000000      42.26215147       1.42247364
      20.10000000      90.00000000      45.00000000      42.26219350       1.42247505
      20.20000000      90.00000000      45.00000000      42.26223552       1.42247647
      20.30000000      90.00000000      45.00000000      42.26227755       1.42247788
      20.40000000      90.00000000      45.00000000      42.26231958       1.42247930
      20.50000000      90.00000000      45.00000000      42.26236162       1.42248071
      20.60000000      90.00000000      45.00000000      42.26240367       1.42248213
      20.70000000      90.00000000      45.00000000      42.26244571       1.42248354
      20.80000000      90.00000000      45.00000000      42.26248777       1.42248496
      20.90000000      90.00000000      45.00000000      42.26252982       1.42248637
      21.00000000      90.00000000      45.00000000      42.26257189       1.42248779
      21.10000000      90.00000000      45.00000000      42.26261395       1.42248921
      21.20000000      90.00000000      45.00000000      42.26265603       1.42249062
      21.30000000      90.00000000      45.00000000      42.26269810       1.42249204
      21.40000000      90.00000000      45.00000000      42.26274018       1.42249345
      21.50000000      90.00000000      45.00000000      42.26278227       1.42249487
      21.60000000      90.00000000      45.00000000      42.26282436       1.42249629
      21.70000000      90.00000000      45.00000000      42.26286645       1.42249770
      21.80000000      90.00000000      45.00000000      42.26290855       1.42249912
      21.90000000      90.00000000      45.00000000      42.26295066       1.42250054
      22.00000000      90.00000000      45.00000000      42.26299276       1.42250196
      22.10000000      90.00000000      45.00000000      42.26303488       1.42250337
      22.20000000      90.00000000      45.00000000      42.26307700       1.42250479
      22.30000000      90.00000000      45.00000000      42.26311912       1.42250621
      22.40000000      90.00000000      45.00000000      42.26316125       1.42250763
      22.50000000      90.00000000      45.00000000      42.26320338       1.42250904
      22.60000000      90.00000000      45.00000000      42.26324552       1.42251046
      22.70000000      90.00000000      45.00000000      42.26328766       1.42251188
      22.80000000      90.00000000      45.00000000      42.26332980       1.42251330
      22.90000000      90.00000000      45.00000000      42.26337195       1.42251472
      23.00000000      90.00000000      45.00000000      42.26341411       1.42251614
