 # applied field (T), theta (degree), phi (degree), abs [muB/unitcell], abs [T]
       0.00000000       0.00000000       0.00000000      37.27707153       1.25468415
       0.10000000       1.08667673      45.00000000      37.27703610       1.25468296
       0.20000000       2.17336054      45.00000000      37.27692995       1.25467938
       0.30000000       3.26005851      45.00000000      37.27675345       1.25467344
       0.40000000       4.34677762      45.00000000      37.27650723       1.25466516
       0.50000000       5.43352479      45.00000000      37.27619218       1.25465455
       0.60000000       6.52030682      45.00000000      37.27580942       1.25464167
       0.70000000       7.66429660      45.00000000      37.27533309       1.25462564
       0.80000000       8.75117093      45.00000000      37.27481562       1.25460822
       0.90000000       9.83809987      45.00000000      37.27423531       1.25458869
       1.00000000      10.98226530      45.00000000      37.27355632       1.25456583
       1.10000000      12.12650497      45.00000000      37.27281209       1.25454078
       1.20000000      13.27082535      45.00000000      37.27200552       1.25451364
       1.30000000      14.47242158      45.00000000      37.27109175       1.25448288
       1.40000000      15.61692623      45.00000000      37.27016704       1.25445176
       1.50000000      16.81872842      45.00000000      37.26913627       1.25441706
       1.60000000      18.02064475      45.00000000      37.26805167       1.25438056
       1.70000000      19.27989181      45.00000000      37.26685857       1.25434040
       1.80000000      20.53927535      45.00000000      37.26561610       1.25429858
       1.90000000      21.79879985      45.00000000      37.26432975       1.25425528
       2.00000000      23.11570110      45.00000000      37.26293960       1.25420849
       2.10000000      24.43276452      45.00000000      37.26151367       1.25416050
       2.20000000      25.80723991      45.00000000      37.25998996       1.25410921
       2.30000000      27.23915265      45.00000000      37.25837176       1.25405475
       2.40000000      28.72852846      45.00000000      37.25666417       1.25399727
       2.50000000      30.21811985      45.00000000      37.25494525       1.25393942
       2.60000000      31.76520675      45.00000000      37.25315307       1.25387909
       2.70000000      33.36981234      45.00000000      37.25129740       1.25381664
       2.80000000      35.08925844      45.00000000      37.24931958       1.25375007
       2.90000000      36.86628329      45.00000000      37.24730560       1.25368228
       3.00000000      38.75822297      45.00000000      37.24520449       1.25361156
       3.10000000      40.76511892      45.00000000      37.24304071       1.25353873
       3.20000000      42.88700684      45.00000000      37.24084301       1.25346476
       3.30000000      45.18126296      45.00000000      37.23858479       1.25338875
       3.40000000      47.76264778      45.00000000      37.23620367       1.25330861
       3.50000000      50.57387591      45.00000000      37.23383150       1.25322876
       3.60000000      53.78709879      45.00000000      37.23141180       1.25314732
       3.70000000      57.57451770      45.00000000      37.22896907       1.25306510
       3.80000000      62.22310516      45.00000000      37.22656503       1.25298418
       3.90000000      68.65106891      45.00000000      37.22421142       1.25290497
       4.00000000      81.04752807      45.00000000      37.22205293       1.25283232
       4.10000000      90.00000000      45.00000000      37.22190590       1.25282737
       4.20000000      90.00000000      45.00000000      37.22215824       1.25283586
       4.30000000      90.00000000      45.00000000      37.22241056       1.25284435
       4.40000000      90.00000000      45.00000000      37.22266287       1.25285284
       4.50000000      90.00000000      45.00000000      37.22291514       1.25286134
       4.60000000      90.00000000      45.00000000      37.22316740       1.25286983
       4.70000000      90.00000000      45.00000000      37.22341963       1.25287832
       4.80000000      90.00000000      45.00000000      37.22367184       1.25288680
       4.90000000      90.00000000      45.00000000      37.22392403       1.25289529
       5.00000000      90.00000000      45.00000000      37.22417619       1.25290378
       5.10000000      90.00000000      45.00000000      37.22442834       1.25291227
       5.20000000      90.00000000      45.00000000      37.22468046       1.25292075
       5.30000000      90.00000000      45.00000000      37.22493256       1.25292924
       5.40000000      90.00000000      45.00000000      37.22518463       1.25293772
       5.50000000      90.00000000      45.00000000      37.22543669       1.25294621
       5.60000000      90.00000000      45.00000000      37.22568872       1.25295469
       5.70000000      90.00000000      45.00000000      37.22594073       1.25296317
       5.80000000      90.00000000      45.00000000      37.22619271       1.25297165
       5.90000000      90.00000000      45.00000000      37.22644468       1.25298013
       6.00000000      90.00000000      45.00000000      37.22669662       1.25298861
       6.10000000      90.00000000      45.00000000      37.22694854       1.25299709
       6.20000000      90.00000000      45.00000000      37.22720043       1.25300557
       6.30000000      90.00000000      45.00000000      37.22745231       1.25301405
       6.40000000      90.00000000      45.00000000      37.22770416       1.25302253
       6.50000000      90.00000000      45.00000000      37.22795599       1.25303100
       6.60000000      90.00000000      45.00000000      37.22820780       1.25303948
       6.70000000      90.00000000      45.00000000      37.22845959       1.25304795
       6.80000000      90.00000000      45.00000000      37.22871135       1.25305643
       6.90000000      90.00000000      45.00000000      37.22896309       1.25306490
       7.00000000      90.00000000      45.00000000      37.22921481       1.25307337
       7.10000000      90.00000000      45.00000000      37.22946651       1.25308184
       7.20000000      90.00000000      45.00000000      37.22971818       1.25309031
       7.30000000      90.00000000      45.00000000      37.22996983       1.25309878
       7.40000000      90.00000000      45.00000000      37.23022146       1.25310725
       7.50000000      90.00000000      45.00000000      37.23047307       1.25311572
       7.60000000      90.00000000      45.00000000      37.23072466       1.25312419
       7.70000000      90.00000000      45.00000000      37.23097622       1.25313266
       7.80000000      90.00000000      45.00000000      37.23122776       1.25314112
       7.90000000      90.00000000      45.00000000      37.23147928       1.25314959
       8.00000000      90.00000000      45.00000000      37.23173078       1.25315806
       8.10000000      90.00000000      45.00000000      37.23198225       1.25316652
       8.20000000      90.00000000      45.00000000      37.23223370       1.25317498
       8.30000000      90.00000000      45.00000000      37.23248513       1.25318345
       8.40000000      90.00000000      45.00000000      37.23273654       1.25319191
       8.50000000      90.00000000      45.00000000      37.23298793       1.25320037
       8.60000000      90.00000000      45.00000000      37.23323929       1.25320883
       8.70000000      90.00000000      45.00000000      37.23349064       1.25321729
       8.80000000      90.00000000      45.00000000      37.23374196       1.25322575
       8.90000000      90.00000000      45.00000000      37.23399325       1.25323421
       9.00000000      90.00000000      45.00000000      37.23424453       1.25324266
       9.10000000      90.00000000      45.00000000      37.23449578       1.25325112
       9.20000000      90.00000000      45.00000000      37.23474702       1.25325958
       9.30000000      90.00000000      45.00000000      37.23499822       1.25326803
       9.40000000      90.00000000      45.00000000      37.23524941       1.25327649
       9.50000000      90.00000000      45.00000000      37.23550058       1.25328494
       9.60000000      90.00000000      45.00000000      37.23575172       1.25329339
       9.70000000      90.00000000      45.00000000      37.23600284       1.25330185
       9.80000000      90.00000000      45.00000000      37.23625394       1.25331030
       9.90000000      90.00000000      45.00000000      37.23650502       1.25331875
      10.00000000      90.00000000      45.00000000      37.23675608       1.25332720
      10.10000000      90.00000000      45.00000000      37.23700711       1.25333565
      10.20000000      90.00000000      45.00000000      37.23725812       1.25334410
      10.30000000      90.00000000      45.00000000      37.23750911       1.25335254
      10.40000000      90.00000000      45.00000000      37.23776008       1.25336099
      10.50000000      90.00000000      45.00000000      37.23801103       1.25336944
      10.60000000      90.00000000      45.00000000      37.23826195       1.25337788
      10.70000000      90.00000000      45.00000000      37.23851285       1.25338633
      10.80000000      90.00000000      45.00000000      37.23876373       1.25339477
      10.90000000      90.00000000      45.00000000      37.23901459       1.25340322
      11.00000000      90.00000000      45.00000000      37.23926543       1.25341166
      11.10000000      90.00000000      45.00000000      37.23951624       1.25342010
      11.20000000      90.00000000      45.00000000      37.23976703       1.25342854
      11.30000000      90.00000000      45.00000000      37.24001780       1.25343698
      11.40000000      90.00000000      45.00000000      37.24026855       1.25344542
      11.50000000      90.00000000      45.00000000      37.24051928       1.25345386
      11.60000000      90.00000000      45.00000000      37.24076998       1.25346230
      11.70000000      90.00000000      45.00000000      37.24102067       1.25347074
      11.80000000      90.00000000      45.00000000      37.24127133       1.25347917
      11.90000000      90.00000000      45.00000000      37.24152197       1.25348761
      12.00000000      90.00000000      45.00000000      37.24177259       1.25349605
      12.10000000      90.00000000      45.00000000      37.24202318       1.25350448
      12.20000000      90.00000000      45.00000000      37.24227376       1.25351291
      12.30000000      90.00000000      45.00000000      37.24252431       1.25352135
      12.40000000      90.00000000      45.00000000      37.24277484       1.25352978
      12.50000000      90.00000000      45.00000000      37.24302535       1.25353821
      12.60000000      90.00000000      45.00000000      37.24327584       1.25354664
      12.70000000      90.00000000      45.00000000      37.24352630       1.25355507
      12.80000000      90.00000000      45.00000000      37.24377675       1.25356350
      12.90000000      90.00000000      45.00000000      37.24402717       1.25357193
      13.00000000      90.00000000      45.00000000      37.24427757       1.25358036
      13.10000000      90.00000000      45.00000000      37.24452795       1.25358879
      13.20000000      90.00000000      45.00000000      37.24477830       1.25359721
      13.30000000      90.00000000      45.00000000      37.24502864       1.25360564
      13.40000000      90.00000000      45.00000000      37.24527895       1.25361406
      13.50000000      90.00000000      45.00000000      37.24552924       1.25362249
      13.60000000      90.00000000      45.00000000      37.24577951       1.25363091
      13.70000000      90.00000000      45.00000000      37.24602976       1.25363934
      13.80000000      90.00000000      45.00000000      37.24627999       1.25364776
      13.90000000      90.00000000      45.00000000      37.24653019       1.25365618
      14.00000000      90.00000000      45.00000000      37.24678038       1.25366460
      14.10000000      90.00000000      45.00000000      37.24703054       1.25367302
      14.20000000      90.00000000      45.00000000      37.24728068       1.25368144
      14.30000000      90.00000000      45.00000000      37.24753080       1.25368986
      14.40000000      90.00000000      45.00000000      37.24778089       1.25369828
      14.50000000      90.00000000      45.00000000      37.24803097       1.25370669
      14.60000000      90.00000000      45.00000000      37.24828102       1.25371511
      14.70000000      90.00000000      45.00000000      37.24853106       1.25372352
      14.80000000      90.00000000      45.00000000      37.24878107       1.25373194
      14.90000000      90.00000000      45.00000000      37.24903106       1.25374035
      15.00000000      90.00000000      45.00000000      37.24928102       1.25374877
      15.10000000      90.00000000      45.00000000      37.24953097       1.25375718
      15.20000000      90.00000000      45.00000000      37.24978089       1.25376559
      15.30000000      90.00000000      45.00000000      37.25003080       1.25377400
      15.40000000      90.00000000      45.00000000      37.25028068       1.25378241
      15.50000000      90.00000000      45.00000000      37.25053054       1.25379082
      15.60000000      90.00000000      45.00000000      37.25078038       1.25379923
      15.70000000      90.00000000      45.00000000      37.25103019       1.25380764
      15.80000000      90.00000000      45.00000000      37.25127999       1.25381605
      15.90000000      90.00000000      45.00000000      37.25152976       1.25382446
      16.00000000      90.00000000      45.00000000      37.25177952       1.25383286
      16.10000000      90.00000000      45.00000000      37.25202925       1.25384127
      16.20000000      90.00000000      45.00000000      37.25227896       1.25384967
      16.30000000      90.00000000      45.00000000      37.25252865       1.25385808
      16.40000000      90.00000000      45.00000000      37.25277831       1.25386648
      16.50000000      90.00000000      45.00000000      37.25302796       1.25387488
      16.60000000      90.00000000      45.00000000      37.25327758       1.25388328
      16.70000000      90.00000000      45.00000000      37.25352719       1.25389169
      16.80000000      90.00000000      45.00000000      37.25377677       1.25390009
      16.90000000      90.00000000      45.00000000      37.25402633       1.25390849
      17.00000000      90.00000000      45.00000000      37.25427586       1.25391689
      17.10000000      90.00000000      45.00000000      37.25452538       1.25392528
      17.20000000      90.00000000      45.00000000      37.25477488       1.25393368
      17.30000000      90.00000000      45.00000000      37.25502435       1.25394208
      17.40000000      90.00000000      45.00000000      37.25527381       1.25395047
      17.50000000      90.00000000      45.00000000      37.25552324       1.25395887
      17.60000000      90.00000000      45.00000000      37.25577265       1.25396726
      17.70000000      90.00000000      45.00000000      37.25602204       1.25397566
      17.80000000      90.00000000      45.00000000      37.25627140       1.25398405
      17.90000000      90.00000000      45.00000000      37.25652075       1.25399244
      18.00000000      90.00000000      45.00000000      37.25677008       1.25400084
      18.10000000      90.00000000      45.00000000      37.25701938       1.25400923
      18.20000000      90.00000000      45.00000000      37.25726866       1.25401762
      18.30000000      90.00000000      45.00000000      37.25751792       1.25402601
      18.40000000      90.00000000      45.00000000      37.25776717       1.25403440
      18.50000000      90.00000000      45.00000000      37.25801638       1.25404279
      18.60000000      90.00000000      45.00000000      37.25826558       1.25405117
      18.70000000      90.00000000      45.00000000      37.25851476       1.25405956
      18.80000000      90.00000000      45.00000000      37.25876391       1.25406795
      18.90000000      90.00000000      45.00000000      37.25901305       1.25407633
      19.00000000      90.00000000      45.00000000      37.25926216       1.25408472
      19.10000000      90.00000000      45.00000000      37.25951125       1.25409310
      19.20000000      90.00000000      45.00000000      37.25976032       1.25410148
      19.30000000      90.00000000      45.00000000      37.26000937       1.25410987
      19.40000000      90.00000000      45.00000000      37.26025840       1.25411825
      19.50000000      90.00000000      45.00000000      37.26050741       1.25412663
      19.60000000      90.00000000      45.00000000      37.26075639       1.25413501
      19.70000000      90.00000000      45.00000000      37.26100536       1.25414339
      19.80000000      90.00000000      45.00000000      37.26125430       1.25415177
      19.90000000      90.00000000      45.00000000      37.26150322       1.25416015
      20.00000000      90.00000000      45.00000000      37.26175213       1.25416852
      20.10000000      90.00000000      45.00000000      37.26200101       1.25417690
      20.20000000      90.00000000      45.00000000      37.26224987       1.25418528
      20.30000000      90.00000000      45.00000000      37.26249870       1.25419365
      20.40000000      90.00000000      45.00000000      37.26274752       1.25420203
      20.50000000      90.00000000      45.00000000      37.26299632       1.25421040
      20.60000000      90.00000000      45.00000000      37.26324509       1.25421877
      20.70000000      90.00000000      45.00000000      37.26349385       1.25422715
      20.80000000      90.00000000      45.00000000      37.26374258       1.25423552
      20.90000000      90.00000000      45.00000000      37.26399129       1.25424389
      21.00000000      90.00000000      45.00000000      37.26423998       1.25425226
      21.10000000      90.00000000      45.00000000      37.26448865       1.25426063
      21.20000000      90.00000000      45.00000000      37.26473730       1.25426900
      21.30000000      90.00000000      45.00000000      37.26498593       1.25427737
      21.40000000      90.00000000      45.00000000      37.26523453       1.25428574
      21.50000000      90.00000000      45.00000000      37.26548312       1.25429410
      21.60000000      90.00000000      45.00000000      37.26573168       1.25430247
      21.70000000      90.00000000      45.00000000      37.26598023       1.25431083
      21.80000000      90.00000000      45.00000000      37.26622875       1.25431920
      21.90000000      90.00000000      45.00000000      37.26647725       1.25432756
      22.00000000      90.00000000      45.00000000      37.26672573       1.25433593
      22.10000000      90.00000000      45.00000000      37.26697419       1.25434429
      22.20000000      90.00000000      45.00000000      37.26722263       1.25435265
      22.30000000      90.00000000      45.00000000      37.26747105       1.25436101
      22.40000000      90.00000000      45.00000000      37.26771945       1.25436937
      22.50000000      90.00000000      45.00000000      37.26796783       1.25437773
      22.60000000      90.00000000      45.00000000      37.26821618       1.25438609
      22.70000000      90.00000000      45.00000000      37.26846452       1.25439445
      22.80000000      90.00000000      45.00000000      37.26871283       1.25440281
      22.90000000      90.00000000      45.00000000      37.26896112       1.25441117
      23.00000000      90.00000000      45.00000000      37.26920940       1.25441952
