 # applied field (T), theta (degree), phi (degree), abs for RE 1-2
     0.00000   178.53697   135.00000     3.98232   178.53697    45.00000     3.98232
     0.10000   177.99352   148.46489     3.98292   178.91823    70.60406     3.97925
     0.20000   177.43588   155.50508     3.98343   178.95865   104.71304     3.97636
     0.30000   176.80467   160.28623     3.98391   178.63227   133.45645     3.97317
     0.40000   176.15898   163.47515     3.98433   178.10957   148.83396     3.96992
     0.50000   175.55567   165.59063     3.98466   177.55833   156.72445     3.96686
     0.60000   174.89718   167.31586     3.98497   176.92819   161.98323     3.96349
     0.70000   174.23531   168.64621     3.98521   176.28029   165.43823     3.96005
     0.80000   173.62229   169.62901     3.98538   175.67298   167.70568     3.95682
     0.90000   172.95649   170.50096     3.98550   175.00847   169.53975     3.95326
     1.00000   172.28935   171.22268     3.98557   174.33907   170.94482     3.94964
     1.10000   171.62112   171.82992     3.98557   173.66594   172.05489     3.94595
     1.20000   170.95195   172.34793     3.98552   172.98977   172.95379     3.94219
     1.30000   170.28196   172.79508     3.98540   172.31099   173.69652     3.93837
     1.40000   169.61120   173.18505     3.98523   171.62987   174.32062     3.93449
     1.50000   168.88800   173.55293     3.98499   170.89393   174.89016     3.93024
     1.60000   168.21572   173.85456     3.98470   170.20843   175.34405     3.92623
     1.70000   167.54270   174.12409     3.98435   169.52094   175.74005     3.92215
     1.80000   166.81706   174.38411     3.98392   168.77835   176.11379     3.91770
     1.90000   166.09053   174.61749     3.98343   168.03351   176.44266     3.91319
     2.00000   165.41509   174.81380     3.98292   167.33984   176.71472     3.90893
     2.10000   164.68674   175.00632     3.98231   166.59059   176.97753     3.90429
     2.20000   163.95738   175.18181     3.98165   165.83902   177.21384     3.89960
     2.30000   163.17476   175.35347     3.98087   165.03113   177.44204     3.89450
     2.40000   162.44319   175.50029     3.98009   164.27461   177.63514     3.88969
     2.50000   161.65808   175.64509     3.97919   163.46133   177.82366     3.88449
     2.60000   160.92411   175.76988     3.97830   162.69967   177.98477     3.87959
     2.70000   160.08373   175.90173     3.97723   161.82605   178.15361     3.87394
     2.80000   159.29438   176.01606     3.97616   161.00393   178.29901     3.86861
     2.90000   158.50351   176.12241     3.97504   160.17874   178.43347     3.86325
     3.00000   157.65817   176.22802     3.97379   159.29508   178.56626     3.85750
     3.10000   156.81099   176.32637     3.97248   158.40779   178.68937     3.85174
     3.20000   155.90877   176.42378     3.97104   157.46098   178.81080     3.84562
     3.30000   155.05762   176.50945     3.96963   156.56598   178.91729     3.83985
     3.40000   154.09767   176.59961     3.96799   155.55453   179.02904     3.83339
     3.50000   153.18869   176.67929     3.96639   154.59475   179.12764     3.82732
     3.60000   152.22366   176.75846     3.96465   153.57367   179.22548     3.82094
     3.70000   151.20210   176.83680     3.96276   152.49042   179.32221     3.81429
     3.80000   150.17750   176.91030     3.96082   151.40151   179.41296     3.80773
     3.90000   149.09563   176.98297     3.95873   150.24917   179.50271     3.80096
     4.00000   147.95595   177.05458     3.95649   149.03246   179.59125     3.79403
     4.10000   146.81242   177.12187     3.95422   147.80883   179.67458     3.78731
     4.20000   145.61029   177.18819     3.95180   146.51960   179.75687     3.78052
     4.30000   144.34897   177.25342     3.94923   145.16385   179.83800     3.77375
     4.40000   142.97269   177.32005     3.94641   143.68126   179.92107     3.76680
     4.50000   141.53555   177.38512     3.94346   142.12976   180.00244     3.76008
     4.60000   140.03691   177.44861     3.94038   140.50868   180.08207     3.75371
     4.70000   138.36441   177.51482     3.93696   138.69632   180.16535     3.74741
     4.80000   136.57203   177.58101     3.93331   136.75115   180.24878     3.74165
     4.90000   134.60193   177.64879     3.92935   134.61086   180.33433     3.73657
     5.00000   132.39512   177.71936     3.92499   132.21232   180.42339     3.73246
     5.10000   129.83423   177.79524     3.92006   129.43011   180.51885     3.72979
     5.20000   126.85648   177.87665     3.91450   126.20046   180.62056     3.72945
     5.30000   123.10817   177.97070     3.90782   122.14972   180.73636     3.73298
     5.40000   117.87419   178.08996     3.89910   116.53327   180.87910     3.74430
     5.50000   108.10154   178.28786     3.88458   106.21097   181.10085     3.77996
     5.60000    91.12372   178.59876     3.86409    88.87628   181.40124     3.86409
     5.70000    91.12372   178.59875     3.86409    88.87628   181.40125     3.86409
     5.80000    91.12372   178.59874     3.86409    88.87628   181.40126     3.86409
     5.90000    91.12373   178.59873     3.86409    88.87627   181.40127     3.86409
     6.00000    91.12373   178.59872     3.86409    88.87627   181.40128     3.86409
     6.10000    91.12373   178.59871     3.86409    88.87627   181.40129     3.86409
     6.20000    91.12373   178.59869     3.86409    88.87627   181.40131     3.86409
     6.30000    91.12373   178.59868     3.86409    88.87627   181.40132     3.86409
     6.40000    91.12373   178.59867     3.86409    88.87627   181.40133     3.86409
     6.50000    91.12373   178.59866     3.86409    88.87627   181.40134     3.86409
     6.60000    91.12374   178.59865     3.86409    88.87626   181.40135     3.86409
     6.70000    91.12374   178.59864     3.86409    88.87626   181.40136     3.86409
     6.80000    91.12374   178.59862     3.86409    88.87626   181.40138     3.86409
     6.90000    91.12374   178.59861     3.86409    88.87626   181.40139     3.86409
     7.00000    91.12374   178.59860     3.86409    88.87626   181.40140     3.86409
     7.10000    91.12374   178.59859     3.86409    88.87626   181.40141     3.86409
     7.20000    91.12375   178.59858     3.86409    88.87625   181.40142     3.86409
     7.30000    91.12375   178.59857     3.86409    88.87625   181.40143     3.86409
     7.40000    91.12375   178.59855     3.86410    88.87625   181.40145     3.86410
     7.50000    91.12375   178.59854     3.86410    88.87625   181.40146     3.86410
     7.60000    91.12375   178.59853     3.86410    88.87625   181.40147     3.86410
     7.70000    91.12375   178.59852     3.86410    88.87625   181.40148     3.86410
     7.80000    91.12376   178.59851     3.86410    88.87624   181.40149     3.86410
     7.90000    91.12376   178.59850     3.86410    88.87624   181.40150     3.86410
     8.00000    91.12376   178.59849     3.86410    88.87624   181.40151     3.86410
     8.10000    91.12376   178.59847     3.86410    88.87624   181.40153     3.86410
     8.20000    91.12376   178.59846     3.86410    88.87624   181.40154     3.86410
     8.30000    91.12376   178.59845     3.86410    88.87624   181.40155     3.86410
     8.40000    91.12377   178.59844     3.86410    88.87623   181.40156     3.86410
     8.50000    91.12377   178.59843     3.86410    88.87623   181.40157     3.86410
     8.60000    91.12377   178.59842     3.86410    88.87623   181.40158     3.86410
     8.70000    91.12377   178.59840     3.86410    88.87623   181.40160     3.86410
     8.80000    91.12377   178.59839     3.86410    88.87623   181.40161     3.86410
     8.90000    91.12377   178.59838     3.86410    88.87623   181.40162     3.86410
     9.00000    91.12378   178.59837     3.86410    88.87622   181.40163     3.86410
     9.10000    91.12378   178.59836     3.86410    88.87622   181.40164     3.86410
     9.20000    91.12378   178.59834     3.86410    88.87622   181.40166     3.86410
     9.30000    91.12378   178.59833     3.86410    88.87622   181.40167     3.86410
     9.40000    91.12378   178.59832     3.86410    88.87622   181.40168     3.86410
     9.50000    91.12379   178.59831     3.86410    88.87621   181.40169     3.86410
     9.60000    91.12379   178.59830     3.86410    88.87621   181.40170     3.86410
     9.70000    91.12379   178.59829     3.86410    88.87621   181.40171     3.86410
     9.80000    91.12379   178.59827     3.86410    88.87621   181.40173     3.86410
     9.90000    91.12379   178.59826     3.86410    88.87621   181.40174     3.86410
    10.00000    91.12379   178.59825     3.86410    88.87621   181.40175     3.86410
    10.10000    91.12380   178.59824     3.86410    88.87620   181.40176     3.86410
    10.20000    91.12380   178.59823     3.86410    88.87620   181.40177     3.86410
    10.30000    91.12380   178.59822     3.86410    88.87620   181.40178     3.86410
    10.40000    91.12380   178.59820     3.86410    88.87620   181.40180     3.86410
    10.50000    91.12380   178.59819     3.86410    88.87620   181.40181     3.86410
    10.60000    91.12381   178.59818     3.86410    88.87619   181.40182     3.86410
    10.70000    91.12381   178.59817     3.86410    88.87619   181.40183     3.86410
    10.80000    91.12381   178.59816     3.86410    88.87619   181.40184     3.86410
    10.90000    91.12381   178.59814     3.86410    88.87619   181.40186     3.86410
    11.00000    91.12381   178.59813     3.86410    88.87619   181.40187     3.86410
    11.10000    91.12382   178.59812     3.86410    88.87618   181.40188     3.86410
    11.20000    91.12382   178.59811     3.86410    88.87618   181.40189     3.86410
    11.30000    91.12382   178.59810     3.86410    88.87618   181.40190     3.86410
    11.40000    91.12382   178.59808     3.86410    88.87618   181.40192     3.86410
    11.50000    91.12382   178.59807     3.86409    88.87618   181.40193     3.86409
    11.60000    91.12383   178.59806     3.86409    88.87617   181.40194     3.86409
    11.70000    91.12383   178.59805     3.86409    88.87617   181.40195     3.86409
    11.80000    91.12383   178.59804     3.86409    88.87617   181.40196     3.86409
    11.90000    91.12383   178.59803     3.86409    88.87617   181.40197     3.86409
    12.00000    91.12383   178.59801     3.86409    88.87617   181.40199     3.86409
    12.10000    91.12384   178.59800     3.86409    88.87616   181.40200     3.86409
    12.20000    91.12384   178.59799     3.86409    88.87616   181.40201     3.86409
    12.30000    91.12384   178.59798     3.86409    88.87616   181.40202     3.86409
    12.40000    91.12384   178.59797     3.86409    88.87616   181.40203     3.86409
    12.50000    91.12384   178.59795     3.86409    88.87616   181.40205     3.86409
    12.60000    91.12385   178.59794     3.86409    88.87615   181.40206     3.86409
    12.70000    91.12385   178.59793     3.86409    88.87615   181.40207     3.86409
    12.80000    91.12385   178.59792     3.86409    88.87615   181.40208     3.86409
    12.90000    91.12385   178.59791     3.86409    88.87615   181.40209     3.86409
    13.00000    91.12385   178.59789     3.86409    88.87615   181.40211     3.86409
    13.10000    91.12386   178.59788     3.86409    88.87614   181.40212     3.86409
    13.20000    91.12386   178.59787     3.86409    88.87614   181.40213     3.86409
    13.30000    91.12386   178.59786     3.86408    88.87614   181.40214     3.86408
    13.40000    91.12386   178.59785     3.86408    88.87614   181.40215     3.86408
    13.50000    91.12386   178.59783     3.86408    88.87614   181.40217     3.86408
    13.60000    91.12387   178.59782     3.86408    88.87613   181.40218     3.86408
    13.70000    91.12387   178.59781     3.86408    88.87613   181.40219     3.86408
    13.80000    91.12387   178.59780     3.86408    88.87613   181.40220     3.86408
    13.90000    91.12387   178.59779     3.86408    88.87613   181.40221     3.86408
    14.00000    91.12387   178.59777     3.86408    88.87613   181.40223     3.86408
    14.10000    91.12388   178.59776     3.86408    88.87612   181.40224     3.86408
    14.20000    91.12388   178.59775     3.86408    88.87612   181.40225     3.86408
    14.30000    91.12388   178.59774     3.86408    88.87612   181.40226     3.86408
    14.40000    91.12388   178.59772     3.86408    88.87612   181.40228     3.86408
    14.50000    91.12389   178.59771     3.86407    88.87611   181.40229     3.86407
    14.60000    91.12389   178.59770     3.86407    88.87611   181.40230     3.86407
    14.70000    91.12389   178.59769     3.86407    88.87611   181.40231     3.86407
    14.80000    91.12389   178.59768     3.86407    88.87611   181.40232     3.86407
    14.90000    91.12389   178.59766     3.86407    88.87611   181.40234     3.86407
    15.00000    91.12390   178.59765     3.86407    88.87610   181.40235     3.86407
    15.10000    91.12390   178.59764     3.86407    88.87610   181.40236     3.86407
    15.20000    91.12390   178.59763     3.86407    88.87610   181.40237     3.86407
    15.30000    91.12390   178.59762     3.86407    88.87610   181.40238     3.86407
    15.40000    91.12391   178.59760     3.86407    88.87609   181.40240     3.86407
    15.50000    91.12391   178.59759     3.86406    88.87609   181.40241     3.86406
    15.60000    91.12391   178.59758     3.86406    88.87609   181.40242     3.86406
    15.70000    91.12391   178.59757     3.86406    88.87609   181.40243     3.86406
    15.80000    91.12391   178.59755     3.86406    88.87609   181.40245     3.86406
    15.90000    91.12392   178.59754     3.86406    88.87608   181.40246     3.86406
    16.00000    91.12392   178.59753     3.86406    88.87608   181.40247     3.86406
    16.10000    91.12392   178.59752     3.86406    88.87608   181.40248     3.86406
    16.20000    91.12392   178.59751     3.86406    88.87608   181.40249     3.86406
    16.30000    91.12393   178.59749     3.86405    88.87607   181.40251     3.86405
    16.40000    91.12393   178.59748     3.86405    88.87607   181.40252     3.86405
    16.50000    91.12393   178.59747     3.86405    88.87607   181.40253     3.86405
    16.60000    91.12393   178.59746     3.86405    88.87607   181.40254     3.86405
    16.70000    91.12394   178.59744     3.86405    88.87606   181.40256     3.86405
    16.80000    91.12394   178.59743     3.86405    88.87606   181.40257     3.86405
    16.90000    91.12394   178.59742     3.86405    88.87606   181.40258     3.86405
    17.00000    91.12394   178.59741     3.86404    88.87606   181.40259     3.86404
    17.10000    91.12394   178.59739     3.86404    88.87606   181.40261     3.86404
    17.20000    91.12395   178.59738     3.86404    88.87605   181.40262     3.86404
    17.30000    91.12395   178.59737     3.86404    88.87605   181.40263     3.86404
    17.40000    91.12395   178.59736     3.86404    88.87605   181.40264     3.86404
    17.50000    91.12395   178.59735     3.86404    88.87605   181.40265     3.86404
    17.60000    91.12396   178.59733     3.86404    88.87604   181.40267     3.86404
    17.70000    91.12396   178.59732     3.86403    88.87604   181.40268     3.86403
    17.80000    91.12396   178.59731     3.86403    88.87604   181.40269     3.86403
    17.90000    91.12396   178.59730     3.86403    88.87604   181.40270     3.86403
    18.00000    91.12397   178.59728     3.86403    88.87603   181.40272     3.86403
    18.10000    91.12397   178.59727     3.86403    88.87603   181.40273     3.86403
    18.20000    91.12397   178.59726     3.86403    88.87603   181.40274     3.86403
    18.30000    91.12397   178.59725     3.86402    88.87603   181.40275     3.86402
    18.40000    91.12398   178.59723     3.86402    88.87602   181.40277     3.86402
    18.50000    91.12398   178.59722     3.86402    88.87602   181.40278     3.86402
    18.60000    91.12398   178.59721     3.86402    88.87602   181.40279     3.86402
    18.70000    91.12398   178.59720     3.86402    88.87602   181.40280     3.86402
    18.80000    91.12399   178.59718     3.86402    88.87601   181.40282     3.86402
    18.90000    91.12399   178.59717     3.86401    88.87601   181.40283     3.86401
    19.00000    91.12399   178.59716     3.86401    88.87601   181.40284     3.86401
    19.10000    91.12399   178.59715     3.86401    88.87601   181.40285     3.86401
    19.20000    91.12400   178.59713     3.86401    88.87600   181.40287     3.86401
    19.30000    91.12400   178.59712     3.86401    88.87600   181.40288     3.86401
    19.40000    91.12400   178.59711     3.86400    88.87600   181.40289     3.86400
    19.50000    91.12400   178.59710     3.86400    88.87600   181.40290     3.86400
    19.60000    91.12401   178.59708     3.86400    88.87599   181.40292     3.86400
    19.70000    91.12401   178.59707     3.86400    88.87599   181.40293     3.86400
    19.80000    91.12401   178.59706     3.86400    88.87599   181.40294     3.86400
    19.90000    91.12401   178.59705     3.86400    88.87599   181.40295     3.86400
    20.00000    91.12402   178.59703     3.86399    88.87598   181.40297     3.86399
    20.10000    91.12402   178.59702     3.86399    88.87598   181.40298     3.86399
    20.20000    91.12402   178.59701     3.86399    88.87598   181.40299     3.86399
    20.30000    91.12402   178.59700     3.86399    88.87598   181.40300     3.86399
    20.40000    91.12403   178.59698     3.86398    88.87597   181.40302     3.86398
    20.50000    91.12403   178.59697     3.86398    88.87597   181.40303     3.86398
    20.60000    91.12403   178.59696     3.86398    88.87597   181.40304     3.86398
    20.70000    91.12404   178.59695     3.86398    88.87596   181.40305     3.86398
    20.80000    91.12404   178.59693     3.86398    88.87596   181.40307     3.86398
    20.90000    91.12404   178.59692     3.86397    88.87596   181.40308     3.86397
    21.00000    91.12404   178.59691     3.86397    88.87596   181.40309     3.86397
    21.10000    91.12405   178.59690     3.86397    88.87595   181.40310     3.86397
    21.20000    91.12405   178.59688     3.86397    88.87595   181.40312     3.86397
    21.30000    91.12405   178.59687     3.86397    88.87595   181.40313     3.86397
    21.40000    91.12405   178.59686     3.86396    88.87595   181.40314     3.86396
    21.50000    91.12406   178.59684     3.86396    88.87594   181.40316     3.86396
    21.60000    91.12406   178.59683     3.86396    88.87594   181.40317     3.86396
    21.70000    91.12406   178.59682     3.86396    88.87594   181.40318     3.86396
    21.80000    91.12407   178.59681     3.86395    88.87593   181.40319     3.86395
    21.90000    91.12407   178.59679     3.86395    88.87593   181.40321     3.86395
    22.00000    91.12407   178.59678     3.86395    88.87593   181.40322     3.86395
    22.10000    91.12407   178.59677     3.86395    88.87593   181.40323     3.86395
    22.20000    91.12408   178.59676     3.86394    88.87592   181.40324     3.86394
    22.30000    91.12408   178.59674     3.86394    88.87592   181.40326     3.86394
    22.40000    91.12408   178.59673     3.86394    88.87592   181.40327     3.86394
    22.50000    91.12408   178.59672     3.86394    88.87592   181.40328     3.86394
    22.60000    91.12409   178.59670     3.86393    88.87591   181.40330     3.86393
    22.70000    91.12409   178.59669     3.86393    88.87591   181.40331     3.86393
    22.80000    91.12409   178.59668     3.86393    88.87591   181.40332     3.86393
    22.90000    91.12410   178.59667     3.86393    88.87590   181.40333     3.86393
    23.00000    91.12410   178.59665     3.86392    88.87590   181.40335     3.86392
    23.10000    91.12410   178.59664     3.86392    88.87590   181.40336     3.86392
    23.20000    91.12410   178.59663     3.86392    88.87590   181.40337     3.86392
    23.30000    91.12411   178.59662     3.86392    88.87589   181.40338     3.86392
