 # applied field (T), theta (degree), phi (degree), abs for RE 3-4
     0.00000   178.74259   315.00000     3.65652   178.74259   225.00000     3.65652
     0.10000   179.12554   265.58816     3.65222   177.94282   206.18129     3.65746
     0.20000   178.70579   221.36935     3.64807   177.09947   198.59696     3.65825
     0.30000   177.89661   203.46800     3.64358   176.17737   194.28496     3.65899
     0.40000   176.99733   195.84212     3.63900   175.24274   191.65755     3.65963
     0.50000   176.06838   191.76263     3.63432   174.30196   189.89480     3.66017
     0.60000   175.12586   189.24469     3.62954   173.35774   188.63171     3.66060
     0.70000   174.17557   187.54049     3.62466   172.41142   187.68255     3.66093
     0.80000   173.22005   186.31145     3.61969   171.46365   186.94319     3.66115
     0.90000   172.26051   185.38319     3.61462   170.51482   186.35086     3.66128
     1.00000   171.29761   184.65707     3.60947   169.56510   185.86550     3.66130
     1.10000   170.33169   184.07321     3.60422   168.61459   185.46037     3.66123
     1.20000   169.30900   183.56905     3.59859   167.61040   185.09936     3.66104
     1.30000   168.28324   183.15070     3.59287   166.60533   184.79170     3.66075
     1.40000   167.30869   182.81485     3.58738   165.65236   184.53933     3.66037
     1.50000   166.27700   182.51025     3.58149   164.64545   184.30619     3.65986
     1.60000   165.18761   182.23357     3.57522   163.58436   184.09092     3.65923
     1.70000   164.14947   182.00423     3.56920   162.57520   183.91004     3.65851
     1.80000   163.05314   181.79151     3.56280   161.51156   183.74026     3.65766
     1.90000   161.95311   181.60299     3.55634   160.44645   183.58828     3.65670
     2.00000   160.84925   181.43458     3.54984   159.37977   183.45135     3.65564
     2.10000   159.68595   181.27587     3.54299   158.25791   183.32134     3.65441
     2.20000   158.51818   181.13280     3.53612   157.13410   183.20342     3.65309
     2.30000   157.34583   181.00298     3.52925   156.00820   183.09590     3.65166
     2.40000   156.11257   180.87912     3.52207   154.82632   182.99291     3.65005
     2.50000   154.81757   180.76101     3.51462   153.58798   182.89437     3.64827
     2.60000   153.57334   180.65737     3.50756   152.40082   182.80775     3.64646
     2.70000   152.20965   180.55331     3.49996   151.10256   182.72065     3.64439
     2.80000   150.83926   180.45739     3.49250   149.80091   182.64033     3.64222
     2.90000   149.40455   180.36498     3.48492   148.44127   182.56295     3.63985
     3.00000   147.90456   180.27594     3.47729   147.02308   182.48848     3.63729
     3.10000   146.39654   180.19318     3.46995   145.60054   182.41936     3.63464
     3.20000   144.76355   180.11021     3.46243   144.06355   182.35021     3.63169
     3.30000   143.12140   180.03283     3.45536   142.52131   182.28586     3.62865
     3.40000   141.35202   179.95538     3.44834   140.86294   182.22162     3.62531
     3.50000   139.45376   179.87825     3.44157   139.08712   182.15779     3.62166
     3.60000   137.48495   179.80393     3.43541   137.24832   182.09643     3.61783
     3.70000   135.32505   179.72821     3.42972   135.23362   182.03397     3.61358
     3.80000   133.03268   179.65367     3.42495   133.09711   181.97247     3.60905
     3.90000   130.54668   179.57875     3.42128   130.78057   181.91051     3.60412
     4.00000   127.80535   179.50238     3.41906   128.22459   181.84700     3.59870
     4.10000   124.74694   179.42395     3.41877   125.36836   181.78111     3.59270
     4.20000   121.24874   179.34184     3.42115   122.09180   181.71099     3.58594
     4.30000   117.12739   179.25401     3.42736   118.21337   181.63409     3.57816
     4.40000   112.01760   179.15632     3.43955   113.36983   181.54520     3.56889
     4.50000   104.88754   179.03650     3.46330   106.53246   181.42928     3.55683
     4.60000    89.04905   178.81480     3.53520    90.95095   181.18520     3.53520
     4.70000    89.04902   178.81475     3.53519    90.95098   181.18525     3.53519
     4.80000    89.04899   178.81471     3.53518    90.95101   181.18529     3.53518
     4.90000    89.04896   178.81466     3.53518    90.95104   181.18534     3.53518
     5.00000    89.04893   178.81462     3.53517    90.95107   181.18538     3.53517
     5.10000    89.04890   178.81458     3.53516    90.95110   181.18542     3.53516
     5.20000    89.04887   178.81453     3.53515    90.95113   181.18547     3.53515
     5.30000    89.04884   178.81449     3.53515    90.95116   181.18551     3.53515
     5.40000    89.04881   178.81445     3.53514    90.95119   181.18555     3.53514
     5.50000    89.04878   178.81440     3.53513    90.95122   181.18560     3.53513
     5.60000    89.04875   178.81436     3.53512    90.95125   181.18564     3.53512
     5.70000    89.04872   178.81432     3.53512    90.95128   181.18568     3.53512
     5.80000    89.04869   178.81427     3.53511    90.95131   181.18573     3.53511
     5.90000    89.04866   178.81423     3.53510    90.95134   181.18577     3.53510
     6.00000    89.04862   178.81419     3.53509    90.95138   181.18581     3.53509
     6.10000    89.04859   178.81414     3.53509    90.95141   181.18586     3.53509
     6.20000    89.04856   178.81410     3.53508    90.95144   181.18590     3.53508
     6.30000    89.04853   178.81406     3.53507    90.95147   181.18594     3.53507
     6.40000    89.04850   178.81401     3.53506    90.95150   181.18599     3.53506
     6.50000    89.04847   178.81397     3.53505    90.95153   181.18603     3.53505
     6.60000    89.04844   178.81392     3.53505    90.95156   181.18608     3.53505
     6.70000    89.04841   178.81388     3.53504    90.95159   181.18612     3.53504
     6.80000    89.04838   178.81384     3.53503    90.95162   181.18616     3.53503
     6.90000    89.04835   178.81379     3.53502    90.95165   181.18621     3.53502
     7.00000    89.04832   178.81375     3.53502    90.95168   181.18625     3.53502
     7.10000    89.04829   178.81371     3.53501    90.95171   181.18629     3.53501
     7.20000    89.04826   178.81366     3.53500    90.95174   181.18634     3.53500
     7.30000    89.04823   178.81362     3.53499    90.95177   181.18638     3.53499
     7.40000    89.04820   178.81358     3.53498    90.95180   181.18642     3.53498
     7.50000    89.04817   178.81353     3.53498    90.95183   181.18647     3.53498
     7.60000    89.04814   178.81349     3.53497    90.95186   181.18651     3.53497
     7.70000    89.04811   178.81345     3.53496    90.95189   181.18655     3.53496
     7.80000    89.04808   178.81340     3.53495    90.95192   181.18660     3.53495
     7.90000    89.04805   178.81336     3.53494    90.95195   181.18664     3.53494
     8.00000    89.04802   178.81331     3.53494    90.95198   181.18669     3.53494
     8.10000    89.04799   178.81327     3.53493    90.95201   181.18673     3.53493
     8.20000    89.04796   178.81323     3.53492    90.95204   181.18677     3.53492
     8.30000    89.04793   178.81318     3.53491    90.95207   181.18682     3.53491
     8.40000    89.04790   178.81314     3.53490    90.95210   181.18686     3.53490
     8.50000    89.04787   178.81310     3.53490    90.95213   181.18690     3.53490
     8.60000    89.04784   178.81305     3.53489    90.95216   181.18695     3.53489
     8.70000    89.04781   178.81301     3.53488    90.95219   181.18699     3.53488
     8.80000    89.04778   178.81297     3.53487    90.95222   181.18703     3.53487
     8.90000    89.04775   178.81292     3.53486    90.95225   181.18708     3.53486
     9.00000    89.04771   178.81288     3.53485    90.95229   181.18712     3.53485
     9.10000    89.04768   178.81283     3.53485    90.95232   181.18717     3.53485
     9.20000    89.04765   178.81279     3.53484    90.95235   181.18721     3.53484
     9.30000    89.04762   178.81275     3.53483    90.95238   181.18725     3.53483
     9.40000    89.04759   178.81270     3.53482    90.95241   181.18730     3.53482
     9.50000    89.04756   178.81266     3.53481    90.95244   181.18734     3.53481
     9.60000    89.04753   178.81262     3.53480    90.95247   181.18738     3.53480
     9.70000    89.04750   178.81257     3.53480    90.95250   181.18743     3.53480
     9.80000    89.04747   178.81253     3.53479    90.95253   181.18747     3.53479
     9.90000    89.04744   178.81249     3.53478    90.95256   181.18751     3.53478
    10.00000    89.04741   178.81244     3.53477    90.95259   181.18756     3.53477
    10.10000    89.04738   178.81240     3.53476    90.95262   181.18760     3.53476
    10.20000    89.04735   178.81235     3.53475    90.95265   181.18765     3.53475
    10.30000    89.04732   178.81231     3.53475    90.95268   181.18769     3.53475
    10.40000    89.04729   178.81227     3.53474    90.95271   181.18773     3.53474
    10.50000    89.04726   178.81222     3.53473    90.95274   181.18778     3.53473
    10.60000    89.04723   178.81218     3.53472    90.95277   181.18782     3.53472
    10.70000    89.04720   178.81214     3.53471    90.95280   181.18786     3.53471
    10.80000    89.04717   178.81209     3.53470    90.95283   181.18791     3.53470
    10.90000    89.04714   178.81205     3.53469    90.95286   181.18795     3.53469
    11.00000    89.04711   178.81201     3.53469    90.95289   181.18799     3.53469
    11.10000    89.04708   178.81196     3.53468    90.95292   181.18804     3.53468
    11.20000    89.04705   178.81192     3.53467    90.95295   181.18808     3.53467
    11.30000    89.04702   178.81187     3.53466    90.95298   181.18813     3.53466
    11.40000    89.04698   178.81183     3.53465    90.95302   181.18817     3.53465
    11.50000    89.04695   178.81179     3.53464    90.95305   181.18821     3.53464
    11.60000    89.04692   178.81174     3.53463    90.95308   181.18826     3.53463
    11.70000    89.04689   178.81170     3.53462    90.95311   181.18830     3.53462
    11.80000    89.04686   178.81166     3.53462    90.95314   181.18834     3.53462
    11.90000    89.04683   178.81161     3.53461    90.95317   181.18839     3.53461
    12.00000    89.04680   178.81157     3.53460    90.95320   181.18843     3.53460
    12.10000    89.04677   178.81152     3.53459    90.95323   181.18848     3.53459
    12.20000    89.04674   178.81148     3.53458    90.95326   181.18852     3.53458
    12.30000    89.04671   178.81144     3.53457    90.95329   181.18856     3.53457
    12.40000    89.04668   178.81139     3.53456    90.95332   181.18861     3.53456
    12.50000    89.04665   178.81135     3.53455    90.95335   181.18865     3.53455
    12.60000    89.04662   178.81131     3.53454    90.95338   181.18869     3.53454
    12.70000    89.04659   178.81126     3.53454    90.95341   181.18874     3.53454
    12.80000    89.04656   178.81122     3.53453    90.95344   181.18878     3.53453
    12.90000    89.04653   178.81117     3.53452    90.95347   181.18883     3.53452
    13.00000    89.04650   178.81113     3.53451    90.95350   181.18887     3.53451
    13.10000    89.04647   178.81109     3.53450    90.95353   181.18891     3.53450
    13.20000    89.04644   178.81104     3.53449    90.95356   181.18896     3.53449
    13.30000    89.04641   178.81100     3.53448    90.95359   181.18900     3.53448
    13.40000    89.04638   178.81096     3.53447    90.95362   181.18904     3.53447
    13.50000    89.04634   178.81091     3.53446    90.95366   181.18909     3.53446
    13.60000    89.04631   178.81087     3.53445    90.95369   181.18913     3.53445
    13.70000    89.04628   178.81082     3.53444    90.95372   181.18918     3.53444
    13.80000    89.04625   178.81078     3.53444    90.95375   181.18922     3.53444
    13.90000    89.04622   178.81074     3.53443    90.95378   181.18926     3.53443
    14.00000    89.04619   178.81069     3.53442    90.95381   181.18931     3.53442
    14.10000    89.04616   178.81065     3.53441    90.95384   181.18935     3.53441
    14.20000    89.04613   178.81060     3.53440    90.95387   181.18940     3.53440
    14.30000    89.04610   178.81056     3.53439    90.95390   181.18944     3.53439
    14.40000    89.04607   178.81052     3.53438    90.95393   181.18948     3.53438
    14.50000    89.04604   178.81047     3.53437    90.95396   181.18953     3.53437
    14.60000    89.04601   178.81043     3.53436    90.95399   181.18957     3.53436
    14.70000    89.04598   178.81039     3.53435    90.95402   181.18961     3.53435
    14.80000    89.04595   178.81034     3.53434    90.95405   181.18966     3.53434
    14.90000    89.04592   178.81030     3.53433    90.95408   181.18970     3.53433
    15.00000    89.04589   178.81025     3.53432    90.95411   181.18975     3.53432
    15.10000    89.04586   178.81021     3.53431    90.95414   181.18979     3.53431
    15.20000    89.04583   178.81017     3.53430    90.95417   181.18983     3.53430
    15.30000    89.04579   178.81012     3.53430    90.95421   181.18988     3.53430
    15.40000    89.04576   178.81008     3.53429    90.95424   181.18992     3.53429
    15.50000    89.04573   178.81003     3.53428    90.95427   181.18997     3.53428
    15.60000    89.04570   178.80999     3.53427    90.95430   181.19001     3.53427
    15.70000    89.04567   178.80995     3.53426    90.95433   181.19005     3.53426
    15.80000    89.04564   178.80990     3.53425    90.95436   181.19010     3.53425
    15.90000    89.04561   178.80986     3.53424    90.95439   181.19014     3.53424
    16.00000    89.04558   178.80982     3.53423    90.95442   181.19018     3.53423
    16.10000    89.04555   178.80977     3.53422    90.95445   181.19023     3.53422
    16.20000    89.04552   178.80973     3.53421    90.95448   181.19027     3.53421
    16.30000    89.04549   178.80968     3.53420    90.95451   181.19032     3.53420
    16.40000    89.04546   178.80964     3.53419    90.95454   181.19036     3.53419
    16.50000    89.04543   178.80960     3.53418    90.95457   181.19040     3.53418
    16.60000    89.04540   178.80955     3.53417    90.95460   181.19045     3.53417
    16.70000    89.04537   178.80951     3.53416    90.95463   181.19049     3.53416
    16.80000    89.04534   178.80946     3.53415    90.95466   181.19054     3.53415
    16.90000    89.04530   178.80942     3.53414    90.95470   181.19058     3.53414
    17.00000    89.04527   178.80938     3.53413    90.95473   181.19062     3.53413
    17.10000    89.04524   178.80933     3.53412    90.95476   181.19067     3.53412
    17.20000    89.04521   178.80929     3.53411    90.95479   181.19071     3.53411
    17.30000    89.04518   178.80924     3.53410    90.95482   181.19076     3.53410
    17.40000    89.04515   178.80920     3.53409    90.95485   181.19080     3.53409
    17.50000    89.04512   178.80916     3.53408    90.95488   181.19084     3.53408
    17.60000    89.04509   178.80911     3.53407    90.95491   181.19089     3.53407
    17.70000    89.04506   178.80907     3.53406    90.95494   181.19093     3.53406
    17.80000    89.04503   178.80903     3.53405    90.95497   181.19097     3.53405
    17.90000    89.04500   178.80898     3.53404    90.95500   181.19102     3.53404
    18.00000    89.04497   178.80894     3.53403    90.95503   181.19106     3.53403
    18.10000    89.04494   178.80889     3.53402    90.95506   181.19111     3.53402
    18.20000    89.04491   178.80885     3.53401    90.95509   181.19115     3.53401
    18.30000    89.04488   178.80881     3.53400    90.95512   181.19119     3.53400
    18.40000    89.04484   178.80876     3.53399    90.95516   181.19124     3.53399
    18.50000    89.04481   178.80872     3.53398    90.95519   181.19128     3.53398
    18.60000    89.04478   178.80867     3.53397    90.95522   181.19133     3.53397
    18.70000    89.04475   178.80863     3.53396    90.95525   181.19137     3.53396
    18.80000    89.04472   178.80859     3.53395    90.95528   181.19141     3.53395
    18.90000    89.04469   178.80854     3.53394    90.95531   181.19146     3.53394
    19.00000    89.04466   178.80850     3.53393    90.95534   181.19150     3.53393
    19.10000    89.04463   178.80845     3.53392    90.95537   181.19155     3.53392
    19.20000    89.04460   178.80841     3.53391    90.95540   181.19159     3.53391
    19.30000    89.04457   178.80837     3.53390    90.95543   181.19163     3.53390
    19.40000    89.04454   178.80832     3.53389    90.95546   181.19168     3.53389
    19.50000    89.04451   178.80828     3.53388    90.95549   181.19172     3.53388
    19.60000    89.04448   178.80823     3.53387    90.95552   181.19177     3.53387
    19.70000    89.04445   178.80819     3.53386    90.95555   181.19181     3.53386
    19.80000    89.04441   178.80815     3.53385    90.95559   181.19185     3.53385
    19.90000    89.04438   178.80810     3.53384    90.95562   181.19190     3.53384
    20.00000    89.04435   178.80806     3.53383    90.95565   181.19194     3.53383
    20.10000    89.04432   178.80801     3.53382    90.95568   181.19199     3.53382
    20.20000    89.04429   178.80797     3.53381    90.95571   181.19203     3.53381
    20.30000    89.04426   178.80793     3.53380    90.95574   181.19207     3.53380
    20.40000    89.04423   178.80788     3.53379    90.95577   181.19212     3.53379
    20.50000    89.04420   178.80784     3.53378    90.95580   181.19216     3.53378
    20.60000    89.04417   178.80779     3.53376    90.95583   181.19221     3.53376
    20.70000    89.04414   178.80775     3.53375    90.95586   181.19225     3.53375
    20.80000    89.04411   178.80770     3.53374    90.95589   181.19230     3.53374
    20.90000    89.04408   178.80766     3.53373    90.95592   181.19234     3.53373
    21.00000    89.04405   178.80762     3.53372    90.95595   181.19238     3.53372
    21.10000    89.04401   178.80757     3.53371    90.95599   181.19243     3.53371
    21.20000    89.04398   178.80753     3.53370    90.95602   181.19247     3.53370
    21.30000    89.04395   178.80748     3.53369    90.95605   181.19252     3.53369
    21.40000    89.04392   178.80744     3.53368    90.95608   181.19256     3.53368
    21.50000    89.04389   178.80740     3.53367    90.95611   181.19260     3.53367
    21.60000    89.04386   178.80735     3.53366    90.95614   181.19265     3.53366
    21.70000    89.04383   178.80731     3.53365    90.95617   181.19269     3.53365
    21.80000    89.04380   178.80726     3.53364    90.95620   181.19274     3.53364
    21.90000    89.04377   178.80722     3.53363    90.95623   181.19278     3.53363
    22.00000    89.04374   178.80718     3.53362    90.95626   181.19282     3.53362
    22.10000    89.04371   178.80713     3.53360    90.95629   181.19287     3.53360
    22.20000    89.04368   178.80709     3.53359    90.95632   181.19291     3.53359
    22.30000    89.04364   178.80704     3.53358    90.95636   181.19296     3.53358
    22.40000    89.04361   178.80700     3.53357    90.95639   181.19300     3.53357
    22.50000    89.04358   178.80696     3.53356    90.95642   181.19304     3.53356
    22.60000    89.04355   178.80691     3.53355    90.95645   181.19309     3.53355
    22.70000    89.04352   178.80687     3.53354    90.95648   181.19313     3.53354
    22.80000    89.04349   178.80682     3.53353    90.95651   181.19318     3.53353
    22.90000    89.04346   178.80678     3.53352    90.95654   181.19322     3.53352
    23.00000    89.04343   178.80673     3.53351    90.95657   181.19327     3.53351
    23.10000    89.04340   178.80669     3.53350    90.95660   181.19331     3.53350
    23.20000    89.04337   178.80665     3.53348    90.95663   181.19335     3.53348
    23.30000    89.04334   178.80660     3.53347    90.95666   181.19340     3.53347
