 # applied field (T), theta (degree), phi (degree), abs [muB/unitcell], abs [T]
       0.00000000       0.00000000       0.00000000      42.80486113       1.47289135
       0.10000000       0.74240746     360.00000000      42.80483668       1.47289050
       0.20000000       1.48481747     360.00000000      42.80476334       1.47288798
       0.30000000       2.22723262     360.00000000      42.80464120       1.47288378
       0.40000000       2.96965544     360.00000000      42.80447040       1.47287790
       0.50000000       3.65502496     360.00000000      42.80427092       1.47287104
       0.60000000       4.39746964     360.00000000      42.80400738       1.47286197
       0.70000000       5.13992939     360.00000000      42.80369590       1.47285125
       0.80000000       5.88240670     360.00000000      42.80333684       1.47283890
       0.90000000       6.62490404     360.00000000      42.80293060       1.47282492
       1.00000000       7.36742387     360.00000000      42.80247764       1.47280933
       1.10000000       8.10996860     360.00000000      42.80197847       1.47279216
       1.20000000       8.85254061     360.00000000      42.80143365       1.47277341
       1.30000000       9.65222015     360.00000000      42.80079342       1.47275138
       1.40000000      10.39485641     360.00000000      42.80015558       1.47272943
       1.50000000      11.13752707     360.00000000      42.79947414       1.47270598
       1.60000000      11.88023437     360.00000000      42.79874986       1.47268106
       1.70000000      12.68007028     360.00000000      42.79791874       1.47265246
       1.80000000      13.42286069     360.00000000      42.79710787       1.47262456
       1.90000000      14.16569429     360.00000000      42.79625679       1.47259528
       2.00000000      14.96567378     360.00000000      42.79529146       1.47256206
       2.10000000      15.70860360     360.00000000      42.79435967       1.47253000
       2.20000000      16.50869153     360.00000000      42.79330924       1.47249385
       2.30000000      17.30883918     360.00000000      42.79221648       1.47245625
       2.40000000      18.05193076     360.00000000      42.79117052       1.47242026
       2.50000000      18.85219966     360.00000000      42.79000027       1.47237999
       2.60000000      19.65253458     360.00000000      42.78879182       1.47233841
       2.70000000      20.45293747     360.00000000      42.78754668       1.47229557
       2.80000000      21.31054846     360.00000000      42.78616721       1.47224810
       2.90000000      22.11109822     360.00000000      42.78485071       1.47220280
       3.00000000      22.91172142     360.00000000      42.78350230       1.47215640
       3.10000000      23.76957480     360.00000000      42.78201694       1.47210529
       3.20000000      24.57035519     360.00000000      42.78060743       1.47205679
       3.30000000      25.42838074     360.00000000      42.77905994       1.47200354
       3.40000000      26.28649781     360.00000000      42.77748326       1.47194929
       3.50000000      27.14470781     360.00000000      42.77587948       1.47189410
       3.60000000      28.00301204     360.00000000      42.77425073       1.47183806
       3.70000000      28.91860546     360.00000000      42.77248033       1.47177714
       3.80000000      29.77710814     360.00000000      42.77080654       1.47171955
       3.90000000      30.69291595     360.00000000      42.76899255       1.47165713
       4.00000000      31.60883593     360.00000000      42.76715979       1.47159406
       4.10000000      32.52486879     360.00000000      42.76531087       1.47153044
       4.20000000      33.44101505     360.00000000      42.76344840       1.47146636
       4.30000000      34.41451296     360.00000000      42.76144886       1.47139755
       4.40000000      35.38814019     360.00000000      42.75943957       1.47132842
       4.50000000      36.36189675     360.00000000      42.75742362       1.47125905
       4.60000000      37.33578244     360.00000000      42.75540400       1.47118955
       4.70000000      38.36706697     360.00000000      42.75325587       1.47111564
       4.80000000      39.39849584     360.00000000      42.75111004       1.47104180
       4.90000000      40.43006808     360.00000000      42.74896990       1.47096816
       5.00000000      41.51907803     360.00000000      42.74671162       1.47089045
       5.10000000      42.60824551     360.00000000      42.74446683       1.47081321
       5.20000000      43.69756856     360.00000000      42.74223925       1.47073656
       5.30000000      44.84436660     360.00000000      42.73990779       1.47065634
       5.40000000      46.04866341     360.00000000      42.73747972       1.47057279
       5.50000000      47.25314261     360.00000000      42.73508528       1.47049040
       5.60000000      48.51514940     360.00000000      42.73260881       1.47040518
       5.70000000      49.77734805     360.00000000      42.73017843       1.47032156
       5.80000000      51.09710079     360.00000000      42.72768298       1.47023569
       5.90000000      52.47442899     360.00000000      42.72513435       1.47014799
       6.00000000      53.90935319     360.00000000      42.72254569       1.47005892
       6.10000000      55.40189279     360.00000000      42.71993141       1.46996896
       6.20000000      56.95206575     360.00000000      42.71730716       1.46987866
       6.30000000      58.55988829     360.00000000      42.71468976       1.46978860
       6.40000000      60.28279866     360.00000000      42.71200266       1.46969614
       6.50000000      62.12083637     360.00000000      42.70927951       1.46960244
       6.60000000      64.07403709     360.00000000      42.70655750       1.46950877
       6.70000000      66.19988394     360.00000000      42.70379972       1.46941388
       6.80000000      68.55589028     360.00000000      42.70100024       1.46931755
       6.90000000      71.19959527     360.00000000      42.69819192       1.46922092
       7.00000000      74.30351742     360.00000000      42.69535174       1.46912319
       7.10000000      78.15522679     360.00000000      42.69253030       1.46902610
       7.20000000      84.24984661     360.00000000      42.68966804       1.46892762
       7.30000000      90.00000000     360.00000000      42.68895601       1.46890312
       7.40000000      90.00000000     360.00000000      42.68920415       1.46891165
       7.50000000      90.00000000     360.00000000      42.68945226       1.46892019
       7.60000000      90.00000000     360.00000000      42.68970036       1.46892873
       7.70000000      90.00000000     360.00000000      42.68994843       1.46893726
       7.80000000      90.00000000     360.00000000      42.69019648       1.46894580
       7.90000000      90.00000000     360.00000000      42.69044451       1.46895433
       8.00000000      90.00000000     360.00000000      42.69069251       1.46896287
       8.10000000      90.00000000     360.00000000      42.69094050       1.46897140
       8.20000000      90.00000000     360.00000000      42.69118846       1.46897993
       8.30000000      90.00000000     360.00000000      42.69143639       1.46898846
       8.40000000      90.00000000     360.00000000      42.69168431       1.46899699
       8.50000000      90.00000000     360.00000000      42.69193220       1.46900552
       8.60000000      90.00000000     360.00000000      42.69218007       1.46901405
       8.70000000      90.00000000     360.00000000      42.69242792       1.46902258
       8.80000000      90.00000000     360.00000000      42.69267575       1.46903111
       8.90000000      90.00000000     360.00000000      42.69292355       1.46903964
       9.00000000      90.00000000     360.00000000      42.69317134       1.46904816
       9.10000000      90.00000000     360.00000000      42.69341910       1.46905669
       9.20000000      90.00000000     360.00000000      42.69366683       1.46906521
       9.30000000      90.00000000     360.00000000      42.69391455       1.46907374
       9.40000000      90.00000000     360.00000000      42.69416224       1.46908226
       9.50000000      90.00000000     360.00000000      42.69440991       1.46909078
       9.60000000      90.00000000     360.00000000      42.69465756       1.46909930
       9.70000000      90.00000000     360.00000000      42.69490519       1.46910782
       9.80000000      90.00000000     360.00000000      42.69515280       1.46911634
       9.90000000      90.00000000     360.00000000      42.69540038       1.46912486
      10.00000000      90.00000000     360.00000000      42.69564794       1.46913338
      10.10000000      90.00000000     360.00000000      42.69589548       1.46914190
      10.20000000      90.00000000     360.00000000      42.69614299       1.46915042
      10.30000000      90.00000000     360.00000000      42.69639049       1.46915893
      10.40000000      90.00000000     360.00000000      42.69663796       1.46916745
      10.50000000      90.00000000     360.00000000      42.69688541       1.46917596
      10.60000000      90.00000000     360.00000000      42.69713284       1.46918448
      10.70000000      90.00000000     360.00000000      42.69738024       1.46919299
      10.80000000      90.00000000     360.00000000      42.69762762       1.46920150
      10.90000000      90.00000000     360.00000000      42.69787499       1.46921001
      11.00000000      90.00000000     360.00000000      42.69812233       1.46921852
      11.10000000      90.00000000     360.00000000      42.69836964       1.46922703
      11.20000000      90.00000000     360.00000000      42.69861694       1.46923554
      11.30000000      90.00000000     360.00000000      42.69886421       1.46924405
      11.40000000      90.00000000     360.00000000      42.69911146       1.46925256
      11.50000000      90.00000000     360.00000000      42.69935869       1.46926107
      11.60000000      90.00000000     360.00000000      42.69960590       1.46926957
      11.70000000      90.00000000     360.00000000      42.69985308       1.46927808
      11.80000000      90.00000000     360.00000000      42.70010025       1.46928658
      11.90000000      90.00000000     360.00000000      42.70034739       1.46929509
      12.00000000      90.00000000     360.00000000      42.70059451       1.46930359
      12.10000000      90.00000000     360.00000000      42.70084160       1.46931209
      12.20000000      90.00000000     360.00000000      42.70108868       1.46932059
      12.30000000      90.00000000     360.00000000      42.70133573       1.46932909
      12.40000000      90.00000000     360.00000000      42.70158276       1.46933760
      12.50000000      90.00000000     360.00000000      42.70182977       1.46934609
      12.60000000      90.00000000     360.00000000      42.70207676       1.46935459
      12.70000000      90.00000000     360.00000000      42.70232372       1.46936309
      12.80000000      90.00000000     360.00000000      42.70257067       1.46937159
      12.90000000      90.00000000     360.00000000      42.70281759       1.46938008
      13.00000000      90.00000000     360.00000000      42.70306449       1.46938858
      13.10000000      90.00000000     360.00000000      42.70331137       1.46939708
      13.20000000      90.00000000     360.00000000      42.70355822       1.46940557
      13.30000000      90.00000000     360.00000000      42.70380506       1.46941406
      13.40000000      90.00000000     360.00000000      42.70405187       1.46942256
      13.50000000      90.00000000     360.00000000      42.70429866       1.46943105
      13.60000000      90.00000000     360.00000000      42.70454543       1.46943954
      13.70000000      90.00000000     360.00000000      42.70479217       1.46944803
      13.80000000      90.00000000     360.00000000      42.70503890       1.46945652
      13.90000000      90.00000000     360.00000000      42.70528560       1.46946501
      14.00000000      90.00000000     360.00000000      42.70553228       1.46947350
      14.10000000      90.00000000     360.00000000      42.70577894       1.46948198
      14.20000000      90.00000000     360.00000000      42.70602558       1.46949047
      14.30000000      90.00000000     360.00000000      42.70627220       1.46949896
      14.40000000      90.00000000     360.00000000      42.70651879       1.46950744
      14.50000000      90.00000000     360.00000000      42.70676536       1.46951593
      14.60000000      90.00000000     360.00000000      42.70701191       1.46952441
      14.70000000      90.00000000     360.00000000      42.70725844       1.46953289
      14.80000000      90.00000000     360.00000000      42.70750495       1.46954137
      14.90000000      90.00000000     360.00000000      42.70775143       1.46954986
      15.00000000      90.00000000     360.00000000      42.70799790       1.46955834
      15.10000000      90.00000000     360.00000000      42.70824434       1.46956682
      15.20000000      90.00000000     360.00000000      42.70849076       1.46957530
      15.30000000      90.00000000     360.00000000      42.70873715       1.46958377
      15.40000000      90.00000000     360.00000000      42.70898353       1.46959225
      15.50000000      90.00000000     360.00000000      42.70922989       1.46960073
      15.60000000      90.00000000     360.00000000      42.70947622       1.46960920
      15.70000000      90.00000000     360.00000000      42.70972253       1.46961768
      15.80000000      90.00000000     360.00000000      42.70996882       1.46962615
      15.90000000      90.00000000     360.00000000      42.71021509       1.46963463
      16.00000000      90.00000000     360.00000000      42.71046133       1.46964310
      16.10000000      90.00000000     360.00000000      42.71070756       1.46965157
      16.20000000      90.00000000     360.00000000      42.71095376       1.46966005
      16.30000000      90.00000000     360.00000000      42.71119994       1.46966852
      16.40000000      90.00000000     360.00000000      42.71144610       1.46967699
      16.50000000      90.00000000     360.00000000      42.71169224       1.46968546
      16.60000000      90.00000000     360.00000000      42.71193836       1.46969393
      16.70000000      90.00000000     360.00000000      42.71218445       1.46970239
      16.80000000      90.00000000     360.00000000      42.71243053       1.46971086
      16.90000000      90.00000000     360.00000000      42.71267658       1.46971933
      17.00000000      90.00000000     360.00000000      42.71292261       1.46972779
      17.10000000      90.00000000     360.00000000      42.71316862       1.46973626
      17.20000000      90.00000000     360.00000000      42.71341460       1.46974472
      17.30000000      90.00000000     360.00000000      42.71366057       1.46975319
      17.40000000      90.00000000     360.00000000      42.71390651       1.46976165
      17.50000000      90.00000000     360.00000000      42.71415244       1.46977011
      17.60000000      90.00000000     360.00000000      42.71439834       1.46977857
      17.70000000      90.00000000     360.00000000      42.71464422       1.46978703
      17.80000000      90.00000000     360.00000000      42.71489007       1.46979549
      17.90000000      90.00000000     360.00000000      42.71513591       1.46980395
      18.00000000      90.00000000     360.00000000      42.71538173       1.46981241
      18.10000000      90.00000000     360.00000000      42.71562752       1.46982087
      18.20000000      90.00000000     360.00000000      42.71587329       1.46982932
      18.30000000      90.00000000     360.00000000      42.71611904       1.46983778
      18.40000000      90.00000000     360.00000000      42.71636477       1.46984624
      18.50000000      90.00000000     360.00000000      42.71661048       1.46985469
      18.60000000      90.00000000     360.00000000      42.71685616       1.46986314
      18.70000000      90.00000000     360.00000000      42.71710183       1.46987160
      18.80000000      90.00000000     360.00000000      42.71734747       1.46988005
      18.90000000      90.00000000     360.00000000      42.71759309       1.46988850
      19.00000000      90.00000000     360.00000000      42.71783869       1.46989695
      19.10000000      90.00000000     360.00000000      42.71808427       1.46990540
      19.20000000      90.00000000     360.00000000      42.71832983       1.46991385
      19.30000000      90.00000000     360.00000000      42.71857537       1.46992230
      19.40000000      90.00000000     360.00000000      42.71882088       1.46993075
      19.50000000      90.00000000     360.00000000      42.71906638       1.46993920
      19.60000000      90.00000000     360.00000000      42.71931185       1.46994764
      19.70000000      90.00000000     360.00000000      42.71955730       1.46995609
      19.80000000      90.00000000     360.00000000      42.71980273       1.46996453
      19.90000000      90.00000000     360.00000000      42.72004814       1.46997298
      20.00000000      90.00000000     360.00000000      42.72029352       1.46998142
      20.10000000      90.00000000     360.00000000      42.72053889       1.46998986
      20.20000000      90.00000000     360.00000000      42.72078423       1.46999831
      20.30000000      90.00000000     360.00000000      42.72102956       1.47000675
      20.40000000      90.00000000     360.00000000      42.72127486       1.47001519
      20.50000000      90.00000000     360.00000000      42.72152014       1.47002363
      20.60000000      90.00000000     360.00000000      42.72176540       1.47003207
      20.70000000      90.00000000     360.00000000      42.72201063       1.47004051
      20.80000000      90.00000000     360.00000000      42.72225585       1.47004894
      20.90000000      90.00000000     360.00000000      42.72250105       1.47005738
      21.00000000      90.00000000     360.00000000      42.72274622       1.47006582
      21.10000000      90.00000000     360.00000000      42.72299137       1.47007425
      21.20000000      90.00000000     360.00000000      42.72323650       1.47008269
      21.30000000      90.00000000     360.00000000      42.72348162       1.47009112
      21.40000000      90.00000000     360.00000000      42.72372670       1.47009956
      21.50000000      90.00000000     360.00000000      42.72397177       1.47010799
      21.60000000      90.00000000     360.00000000      42.72421682       1.47011642
      21.70000000      90.00000000     360.00000000      42.72446184       1.47012485
      21.80000000      90.00000000     360.00000000      42.72470685       1.47013328
      21.90000000      90.00000000     360.00000000      42.72495183       1.47014171
      22.00000000      90.00000000     360.00000000      42.72519679       1.47015014
      22.10000000      90.00000000     360.00000000      42.72544174       1.47015857
      22.20000000      90.00000000     360.00000000      42.72568665       1.47016700
      22.30000000      90.00000000     360.00000000      42.72593155       1.47017542
      22.40000000      90.00000000     360.00000000      42.72617643       1.47018385
      22.50000000      90.00000000     360.00000000      42.72642129       1.47019227
      22.60000000      90.00000000     360.00000000      42.72666612       1.47020070
      22.70000000      90.00000000     360.00000000      42.72691094       1.47020912
      22.80000000      90.00000000     360.00000000      42.72715573       1.47021755
      22.90000000      90.00000000     360.00000000      42.72740050       1.47022597
      23.00000000      90.00000000     360.00000000      42.72764525       1.47023439
