 # applied field (T), theta (degree), phi (degree), abs for RE 3-4
     0.00000     2.27803   135.00000     4.70039     2.27803    45.00000     4.70039
     0.10000     2.05418   128.82747     4.70036     2.52336    39.98070     4.70042
     0.20000     1.88498   122.41764     4.70033     2.74679    36.40954     4.70044
     0.30000     1.72364   113.49951     4.70028     3.01817    32.93374     4.70046
     0.40000     1.61173   103.04655     4.70024     3.29875    30.04071     4.70047
     0.50000     1.56007    91.47437     4.70018     3.58636    27.60669     4.70048
     0.60000     1.56863    81.27155     4.70013     3.83777    25.81046     4.70048
     0.70000     1.63931    69.94075     4.70007     4.13468    23.99615     4.70048
     0.80000     1.76778    59.89028     4.70000     4.43520    22.42619     4.70048
     0.90000     1.94279    51.41305     4.69993     4.73868    21.05622     4.70047
     1.00000     2.12169    45.35193     4.69986     5.00125    20.01276     4.70045
     1.10000     2.35510    39.52328     4.69978     5.30899    18.92794     4.70043
     1.20000     2.60873    34.77912     4.69969     5.61855    17.96200     4.70041
     1.30000     2.87741    30.89194     4.69960     5.92968    17.09684     4.70038
     1.40000     3.15746    27.67609     4.69950     6.24220    16.31777     4.70034
     1.50000     3.40501    25.33947     4.69941     6.51156    15.70824     4.70031
     1.60000     3.69984    23.01358     4.69930     6.82629    15.05884     4.70027
     1.70000     4.00037    21.03035     4.69919     7.14205    14.46639     4.70022
     1.80000     4.30557    19.32292     4.69907     7.45878    13.92381     4.70017
     1.90000     4.61466    17.83980     4.69894     7.77641    13.42512     4.70011
     2.00000     4.92707    16.54102     4.69881     8.09490    12.96523     4.70005
     2.10000     5.24234    15.39518     4.69868     8.41420    12.53984     4.69998
     2.20000     5.56014    14.37741     4.69854     8.73429    12.14522     4.69991
     2.30000     5.88020    13.46782     4.69839     9.05514    11.77817     4.69983
     2.40000     6.20233    12.65030     4.69824     9.37675    11.43591     4.69975
     2.50000     6.52635    11.91174     4.69808     9.69909    11.11602     4.69966
     2.60000     6.85215    11.24134     4.69792    10.02216    10.81639     4.69957
     2.70000     7.17962    10.63016     4.69775    10.34597    10.53515     4.69948
     2.80000     7.50868    10.07071     4.69758    10.67050    10.27066     4.69938
     2.90000     7.83928     9.55673     4.69740    10.99576    10.02148     4.69928
     3.00000     8.21841     9.01890     4.69719    11.36787     9.75417     4.69915
     3.10000     8.55216     8.58535     4.69700    11.69471     9.53359     4.69904
     3.20000     8.88733     8.18300     4.69681    12.02229     9.32471     4.69892
     3.30000     9.27158     7.75778     4.69658    12.39709     9.09948     4.69879
     3.40000     9.60975     7.41180     4.69637    12.72630     8.91271     4.69866
     3.50000     9.94932     7.08812     4.69616    13.05628     8.73508     4.69853
     3.60000    10.33856     6.74325     4.69591    13.43386     8.54271     4.69838
     3.70000    10.68110     6.46051     4.69569    13.76555     8.38251     4.69824
     3.80000    11.07375     6.15784     4.69542    14.14510     8.20857     4.69807
     3.90000    11.46824     5.87450     4.69516    14.52573     8.04338     4.69791
     4.00000    11.81540     5.64066     4.69492    14.86013     7.90530     4.69775
     4.10000    12.21338     5.38878     4.69464    15.24283     7.75484     4.69758
     4.20000    12.61324     5.15151     4.69435    15.62667     7.61143     4.69740
     4.30000    13.01501     4.92756     4.69406    16.01166     7.47458     4.69721
     4.40000    13.41872     4.71580     4.69376    16.39782     7.34385     4.69702
     4.50000    13.82439     4.51520     4.69345    16.78517     7.21884     4.69682
     4.60000    14.28267     4.30199     4.69310    17.22194     7.08473     4.69659
     4.70000    14.69259     4.12224     4.69278    17.61189     6.97067     4.69639
     4.80000    15.10457     3.95112     4.69245    18.00310     6.86125     4.69618
     4.90000    15.57004     3.76834     4.69208    18.44427     6.74353     4.69594
     5.00000    16.03818     3.59483     4.69170    18.88707     6.63096     4.69569
     5.10000    16.45701     3.44762     4.69135    19.28247     6.53482     4.69547
     5.20000    16.93030     3.28967     4.69096    19.72843     6.43110     4.69522
     5.30000    17.40637     3.13904     4.69056    20.17608     6.33163     4.69496
     5.40000    17.93822     2.97976     4.69011    20.67511     6.22590     4.69467
     5.50000    18.42030     2.84288     4.68969    21.12643     6.13458     4.69440
     5.60000    18.95891     2.69770     4.68923    21.62958     6.03732     4.69410
     5.70000    19.50115     2.55912     4.68875    22.13493     5.94410     4.69379
     5.80000    20.04708     2.42665     4.68827    22.64252     5.85468     4.69348
     5.90000    20.59674     2.29984     4.68779    23.15236     5.76881     4.69317
     6.00000    21.20531     2.16650     4.68725    23.71546     5.67829     4.69282
     6.10000    21.81848     2.03902     4.68670    24.28132     5.59154     4.69247
     6.20000    22.43632     1.91698     4.68615    24.84998     5.50832     4.69211
     6.30000    23.11530     1.78965     4.68554    25.47322     5.42137     4.69172
     6.40000    23.79991     1.66785     4.68493    26.09981     5.33810     4.69133
     6.50000    24.49019     1.55115     4.68431    26.72978     5.25824     4.69094
     6.60000    25.30202     1.42109     4.68360    27.46841     5.16924     4.69048
     6.70000    26.12160     1.29694     4.68288    28.21163     5.08427     4.69001
     6.80000    26.94895     1.17822     4.68216    28.95944     5.00305     4.68955
     6.90000    27.90338     1.04875     4.68134    29.81916     4.91456     4.68903
     7.00000    28.92819     0.91775     4.68049    30.73885     4.82516     4.68848
     7.10000    91.86768   357.61759     4.67920    88.13232     2.38241     4.67920
     7.20000    91.86744   357.61789     4.67918    88.13256     2.38211     4.67918
     7.30000    91.86719   357.61818     4.67916    88.13281     2.38182     4.67916
     7.40000    91.86695   357.61848     4.67914    88.13305     2.38152     4.67914
     7.50000    91.86670   357.61878     4.67912    88.13330     2.38122     4.67912
     7.60000    91.86645   357.61907     4.67910    88.13355     2.38093     4.67910
     7.70000    91.86621   357.61937     4.67907    88.13379     2.38063     4.67907
     7.80000    91.86596   357.61966     4.67905    88.13404     2.38034     4.67905
     7.90000    91.86572   357.61996     4.67903    88.13428     2.38004     4.67903
     8.00000    91.86547   357.62025     4.67901    88.13453     2.37975     4.67901
     8.10000    91.86523   357.62055     4.67899    88.13477     2.37945     4.67899
     8.20000    91.86498   357.62085     4.67897    88.13502     2.37915     4.67897
     8.30000    91.86473   357.62114     4.67894    88.13527     2.37886     4.67894
     8.40000    91.86449   357.62144     4.67892    88.13551     2.37856     4.67892
     8.50000    91.86424   357.62173     4.67890    88.13576     2.37827     4.67890
     8.60000    91.86400   357.62203     4.67888    88.13600     2.37797     4.67888
     8.70000    91.86375   357.62232     4.67886    88.13625     2.37768     4.67886
     8.80000    91.86351   357.62262     4.67884    88.13649     2.37738     4.67884
     8.90000    91.86327   357.62291     4.67881    88.13673     2.37709     4.67881
     9.00000    91.86302   357.62320     4.67879    88.13698     2.37680     4.67879
     9.10000    91.86278   357.62350     4.67877    88.13722     2.37650     4.67877
     9.20000    91.86253   357.62379     4.67875    88.13747     2.37621     4.67875
     9.30000    91.86229   357.62409     4.67873    88.13771     2.37591     4.67873
     9.40000    91.86204   357.62438     4.67871    88.13796     2.37562     4.67871
     9.50000    91.86180   357.62468     4.67869    88.13820     2.37532     4.67869
     9.60000    91.86155   357.62497     4.67866    88.13845     2.37503     4.67866
     9.70000    91.86131   357.62526     4.67864    88.13869     2.37474     4.67864
     9.80000    91.86107   357.62556     4.67862    88.13893     2.37444     4.67862
     9.90000    91.86082   357.62585     4.67860    88.13918     2.37415     4.67860
    10.00000    91.86058   357.62614     4.67858    88.13942     2.37386     4.67858
    10.10000    91.86034   357.62644     4.67856    88.13966     2.37356     4.67856
    10.20000    91.86009   357.62673     4.67853    88.13991     2.37327     4.67853
    10.30000    91.85985   357.62702     4.67851    88.14015     2.37298     4.67851
    10.40000    91.85961   357.62732     4.67849    88.14039     2.37268     4.67849
    10.50000    91.85936   357.62761     4.67847    88.14064     2.37239     4.67847
    10.60000    91.85912   357.62790     4.67845    88.14088     2.37210     4.67845
    10.70000    91.85888   357.62820     4.67843    88.14112     2.37180     4.67843
    10.80000    91.85863   357.62849     4.67840    88.14137     2.37151     4.67840
    10.90000    91.85839   357.62878     4.67838    88.14161     2.37122     4.67838
    11.00000    91.85815   357.62907     4.67836    88.14185     2.37093     4.67836
    11.10000    91.85790   357.62937     4.67834    88.14210     2.37063     4.67834
    11.20000    91.85766   357.62966     4.67832    88.14234     2.37034     4.67832
    11.30000    91.85742   357.62995     4.67830    88.14258     2.37005     4.67830
    11.40000    91.85718   357.63024     4.67827    88.14282     2.36976     4.67827
    11.50000    91.85693   357.63054     4.67825    88.14307     2.36946     4.67825
    11.60000    91.85669   357.63083     4.67823    88.14331     2.36917     4.67823
    11.70000    91.85645   357.63112     4.67821    88.14355     2.36888     4.67821
    11.80000    91.85621   357.63141     4.67819    88.14379     2.36859     4.67819
    11.90000    91.85597   357.63170     4.67817    88.14403     2.36830     4.67817
    12.00000    91.85572   357.63199     4.67814    88.14428     2.36801     4.67814
    12.10000    91.85548   357.63229     4.67812    88.14452     2.36771     4.67812
    12.20000    91.85524   357.63258     4.67810    88.14476     2.36742     4.67810
    12.30000    91.85500   357.63287     4.67808    88.14500     2.36713     4.67808
    12.40000    91.85476   357.63316     4.67806    88.14524     2.36684     4.67806
    12.50000    91.85451   357.63345     4.67804    88.14549     2.36655     4.67804
    12.60000    91.85427   357.63374     4.67801    88.14573     2.36626     4.67801
    12.70000    91.85403   357.63403     4.67799    88.14597     2.36597     4.67799
    12.80000    91.85379   357.63432     4.67797    88.14621     2.36568     4.67797
    12.90000    91.85355   357.63461     4.67795    88.14645     2.36539     4.67795
    13.00000    91.85331   357.63490     4.67793    88.14669     2.36510     4.67793
    13.10000    91.85307   357.63519     4.67791    88.14693     2.36481     4.67791
    13.20000    91.85283   357.63548     4.67788    88.14717     2.36452     4.67788
    13.30000    91.85259   357.63578     4.67786    88.14741     2.36422     4.67786
    13.40000    91.85234   357.63607     4.67784    88.14766     2.36393     4.67784
    13.50000    91.85210   357.63636     4.67782    88.14790     2.36364     4.67782
    13.60000    91.85186   357.63665     4.67780    88.14814     2.36335     4.67780
    13.70000    91.85162   357.63694     4.67777    88.14838     2.36306     4.67777
    13.80000    91.85138   357.63722     4.67775    88.14862     2.36278     4.67775
    13.90000    91.85114   357.63751     4.67773    88.14886     2.36249     4.67773
    14.00000    91.85090   357.63780     4.67771    88.14910     2.36220     4.67771
    14.10000    91.85066   357.63809     4.67769    88.14934     2.36191     4.67769
    14.20000    91.85042   357.63838     4.67767    88.14958     2.36162     4.67767
    14.30000    91.85018   357.63867     4.67764    88.14982     2.36133     4.67764
    14.40000    91.84994   357.63896     4.67762    88.15006     2.36104     4.67762
    14.50000    91.84970   357.63925     4.67760    88.15030     2.36075     4.67760
    14.60000    91.84946   357.63954     4.67758    88.15054     2.36046     4.67758
    14.70000    91.84922   357.63983     4.67756    88.15078     2.36017     4.67756
    14.80000    91.84898   357.64012     4.67754    88.15102     2.35988     4.67754
    14.90000    91.84874   357.64041     4.67751    88.15126     2.35959     4.67751
    15.00000    91.84850   357.64069     4.67749    88.15150     2.35931     4.67749
    15.10000    91.84827   357.64098     4.67747    88.15173     2.35902     4.67747
    15.20000    91.84803   357.64127     4.67745    88.15197     2.35873     4.67745
    15.30000    91.84779   357.64156     4.67743    88.15221     2.35844     4.67743
    15.40000    91.84755   357.64185     4.67741    88.15245     2.35815     4.67741
    15.50000    91.84731   357.64214     4.67738    88.15269     2.35786     4.67738
    15.60000    91.84707   357.64242     4.67736    88.15293     2.35758     4.67736
    15.70000    91.84683   357.64271     4.67734    88.15317     2.35729     4.67734
    15.80000    91.84659   357.64300     4.67732    88.15341     2.35700     4.67732
    15.90000    91.84635   357.64329     4.67730    88.15365     2.35671     4.67730
    16.00000    91.84612   357.64357     4.67727    88.15388     2.35643     4.67727
    16.10000    91.84588   357.64386     4.67725    88.15412     2.35614     4.67725
    16.20000    91.84564   357.64415     4.67723    88.15436     2.35585     4.67723
    16.30000    91.84540   357.64444     4.67721    88.15460     2.35556     4.67721
    16.40000    91.84516   357.64472     4.67719    88.15484     2.35528     4.67719
    16.50000    91.84493   357.64501     4.67717    88.15507     2.35499     4.67717
    16.60000    91.84469   357.64530     4.67714    88.15531     2.35470     4.67714
    16.70000    91.84445   357.64558     4.67712    88.15555     2.35442     4.67712
    16.80000    91.84421   357.64587     4.67710    88.15579     2.35413     4.67710
    16.90000    91.84397   357.64616     4.67708    88.15603     2.35384     4.67708
    17.00000    91.84374   357.64644     4.67706    88.15626     2.35356     4.67706
    17.10000    91.84350   357.64673     4.67703    88.15650     2.35327     4.67703
    17.20000    91.84326   357.64702     4.67701    88.15674     2.35298     4.67701
    17.30000    91.84302   357.64730     4.67699    88.15698     2.35270     4.67699
    17.40000    91.84279   357.64759     4.67697    88.15721     2.35241     4.67697
    17.50000    91.84255   357.64788     4.67695    88.15745     2.35212     4.67695
    17.60000    91.84231   357.64816     4.67693    88.15769     2.35184     4.67693
    17.70000    91.84208   357.64845     4.67690    88.15792     2.35155     4.67690
    17.80000    91.84184   357.64873     4.67688    88.15816     2.35127     4.67688
    17.90000    91.84160   357.64902     4.67686    88.15840     2.35098     4.67686
    18.00000    91.84137   357.64930     4.67684    88.15863     2.35070     4.67684
    18.10000    91.84113   357.64959     4.67682    88.15887     2.35041     4.67682
    18.20000    91.84089   357.64988     4.67679    88.15911     2.35012     4.67679
    18.30000    91.84066   357.65016     4.67677    88.15934     2.34984     4.67677
    18.40000    91.84042   357.65045     4.67675    88.15958     2.34955     4.67675
    18.50000    91.84018   357.65073     4.67673    88.15982     2.34927     4.67673
    18.60000    91.83995   357.65102     4.67671    88.16005     2.34898     4.67671
    18.70000    91.83971   357.65130     4.67668    88.16029     2.34870     4.67668
    18.80000    91.83947   357.65159     4.67666    88.16053     2.34841     4.67666
    18.90000    91.83924   357.65187     4.67664    88.16076     2.34813     4.67664
    19.00000    91.83900   357.65216     4.67662    88.16100     2.34784     4.67662
    19.10000    91.83877   357.65244     4.67660    88.16123     2.34756     4.67660
    19.20000    91.83853   357.65272     4.67658    88.16147     2.34728     4.67658
    19.30000    91.83830   357.65301     4.67655    88.16170     2.34699     4.67655
    19.40000    91.83806   357.65329     4.67653    88.16194     2.34671     4.67653
    19.50000    91.83782   357.65358     4.67651    88.16218     2.34642     4.67651
    19.60000    91.83759   357.65386     4.67649    88.16241     2.34614     4.67649
    19.70000    91.83735   357.65415     4.67647    88.16265     2.34585     4.67647
    19.80000    91.83712   357.65443     4.67644    88.16288     2.34557     4.67644
    19.90000    91.83688   357.65471     4.67642    88.16312     2.34529     4.67642
    20.00000    91.83665   357.65500     4.67640    88.16335     2.34500     4.67640
    20.10000    91.83641   357.65528     4.67638    88.16359     2.34472     4.67638
    20.20000    91.83618   357.65556     4.67636    88.16382     2.34444     4.67636
    20.30000    91.83594   357.65585     4.67633    88.16406     2.34415     4.67633
    20.40000    91.83571   357.65613     4.67631    88.16429     2.34387     4.67631
    20.50000    91.83547   357.65641     4.67629    88.16453     2.34359     4.67629
    20.60000    91.83524   357.65670     4.67627    88.16476     2.34330     4.67627
    20.70000    91.83501   357.65698     4.67625    88.16499     2.34302     4.67625
    20.80000    91.83477   357.65726     4.67622    88.16523     2.34274     4.67622
    20.90000    91.83454   357.65755     4.67620    88.16546     2.34245     4.67620
    21.00000    91.83430   357.65783     4.67618    88.16570     2.34217     4.67618
    21.10000    91.83407   357.65811     4.67616    88.16593     2.34189     4.67616
    21.20000    91.83383   357.65839     4.67614    88.16617     2.34161     4.67614
    21.30000    91.83360   357.65868     4.67612    88.16640     2.34132     4.67612
    21.40000    91.83337   357.65896     4.67609    88.16663     2.34104     4.67609
    21.50000    91.83313   357.65924     4.67607    88.16687     2.34076     4.67607
    21.60000    91.83290   357.65952     4.67605    88.16710     2.34048     4.67605
    21.70000    91.83267   357.65980     4.67603    88.16733     2.34020     4.67603
    21.80000    91.83243   357.66009     4.67601    88.16757     2.33991     4.67601
    21.90000    91.83220   357.66037     4.67598    88.16780     2.33963     4.67598
    22.00000    91.83196   357.66065     4.67596    88.16804     2.33935     4.67596
    22.10000    91.83173   357.66093     4.67594    88.16827     2.33907     4.67594
    22.20000    91.83150   357.66121     4.67592    88.16850     2.33879     4.67592
    22.30000    91.83127   357.66149     4.67590    88.16873     2.33851     4.67590
    22.40000    91.83103   357.66178     4.67587    88.16897     2.33822     4.67587
    22.50000    91.83080   357.66206     4.67585    88.16920     2.33794     4.67585
    22.60000    91.83057   357.66234     4.67583    88.16943     2.33766     4.67583
    22.70000    91.83033   357.66262     4.67581    88.16967     2.33738     4.67581
    22.80000    91.83010   357.66290     4.67579    88.16990     2.33710     4.67579
    22.90000    91.82987   357.66318     4.67576    88.17013     2.33682     4.67576
    23.00000    91.82964   357.66346     4.67574    88.17036     2.33654     4.67574
    23.10000    91.82940   357.66374     4.67572    88.17060     2.33626     4.67572
    23.20000    91.82917   357.66402     4.67570    88.17083     2.33598     4.67570
    23.30000    91.82894   357.66430     4.67568    88.17106     2.33570     4.67568
