 # applied field (T), theta (degree), phi (degree), abs [muB/unitcell], abs [T]
       0.00000000       0.00000000       0.00000000      35.70310697       1.19354776
       0.10000000       0.39846287      45.00000000      35.70309722       1.19354743
       0.20000000       0.79692633      45.00000000      35.70306795       1.19354645
       0.30000000       1.19539098      45.00000000      35.70301917       1.19354482
       0.40000000       1.65067573      45.00000000      35.70293853       1.19354213
       0.50000000       2.04914490      45.00000000      35.70284775       1.19353909
       0.60000000       2.44761710      45.00000000      35.70273752       1.19353541
       0.70000000       2.84609292      45.00000000      35.70260786       1.19353107
       0.80000000       3.24457294      45.00000000      35.70245880       1.19352609
       0.90000000       3.64305776      45.00000000      35.70229038       1.19352046
       1.00000000       4.09837018      45.00000000      35.70207169       1.19351315
       1.10000000       4.49686727      45.00000000      35.70186167       1.19350613
       1.20000000       4.89537099      45.00000000      35.70163243       1.19349846
       1.30000000       5.29388191      45.00000000      35.70138402       1.19349016
       1.40000000       5.69240062      45.00000000      35.70111650       1.19348122
       1.50000000       6.09092770      45.00000000      35.70082993       1.19347164
       1.60000000       6.54629312      45.00000000      35.70047512       1.19345977
       1.70000000       6.94484011      45.00000000      35.70014772       1.19344883
       1.80000000       7.34339727      45.00000000      35.69980150       1.19343726
       1.90000000       7.74196515      45.00000000      35.69943655       1.19342505
       2.00000000       8.14054433      45.00000000      35.69905294       1.19341223
       2.10000000       8.59597332      45.00000000      35.69858647       1.19339664
       2.20000000       8.99457869      45.00000000      35.69816295       1.19338248
       2.30000000       9.39319712      45.00000000      35.69772108       1.19336771
       2.40000000       9.79182915      45.00000000      35.69726095       1.19335232
       2.50000000      10.19047535      45.00000000      35.69678268       1.19333634
       2.60000000      10.64598496      45.00000000      35.69620742       1.19331711
       2.70000000      11.04466346      45.00000000      35.69569040       1.19329982
       2.80000000      11.44335783      45.00000000      35.69515561       1.19328194
       2.90000000      11.84206861      45.00000000      35.69460316       1.19326348
       3.00000000      12.29765528      45.00000000      35.69394273       1.19324140
       3.10000000      12.69640314      45.00000000      35.69335265       1.19322167
       3.20000000      13.09516908      45.00000000      35.69274533       1.19320137
       3.30000000      13.49395361      45.00000000      35.69212091       1.19318049
       3.40000000      13.94962780      45.00000000      35.69137793       1.19315566
       3.50000000      14.34845405      45.00000000      35.69071714       1.19313357
       3.60000000      14.74730050      45.00000000      35.69003972       1.19311092
       3.70000000      15.20304791      45.00000000      35.68923599       1.19308405
       3.80000000      15.60193950      45.00000000      35.68852323       1.19306022
       3.90000000      16.00085284      45.00000000      35.68779436       1.19303586
       4.00000000      16.45667915      45.00000000      35.68693170       1.19300702
       4.10000000      16.85564095      45.00000000      35.68616861       1.19298151
       4.20000000      17.25462602      45.00000000      35.68538994       1.19295548
       4.30000000      17.71053673      45.00000000      35.68447030       1.19292474
       4.40000000      18.10957346      45.00000000      35.68365862       1.19289760
       4.50000000      18.56554484      45.00000000      35.68270123       1.19286560
       4.60000000      18.96463534      45.00000000      35.68185738       1.19283739
       4.70000000      19.36375155      45.00000000      35.68099894       1.19280869
       4.80000000      19.81981616      45.00000000      35.67998812       1.19277490
       4.90000000      20.21898916      45.00000000      35.67909883       1.19274517
       5.00000000      20.67512027      45.00000000      35.67805278       1.19271020
       5.10000000      21.07435204      45.00000000      35.67713358       1.19267947
       5.20000000      21.53055192      45.00000000      35.67605339       1.19264336
       5.30000000      21.92984439      45.00000000      35.67510524       1.19261166
       5.40000000      22.38611522      45.00000000      35.67399202       1.19257445
       5.50000000      22.78547023      45.00000000      35.67301591       1.19254182
       5.60000000      23.24181413      45.00000000      35.67187082       1.19250354
       5.70000000      23.69819796      45.00000000      35.67070908       1.19246470
       5.80000000      24.09765250      45.00000000      35.66969197       1.19243070
       5.90000000      24.55411250      45.00000000      35.66850018       1.19239086
       6.00000000      24.95363402      45.00000000      35.66745773       1.19235601
       6.10000000      25.41017211      45.00000000      35.66623710       1.19231520
       6.20000000      25.86675277      45.00000000      35.66500148       1.19227390
       6.30000000      26.32337650      45.00000000      35.66375122       1.19223210
       6.40000000      26.72304184      45.00000000      35.66265964       1.19219561
       6.50000000      27.17974740      45.00000000      35.66138315       1.19215294
       6.60000000      27.63649746      45.00000000      35.66009308       1.19210981
       6.70000000      28.09329249      45.00000000      35.65878980       1.19206624
       6.80000000      28.49310805      45.00000000      35.65765387       1.19202827
       6.90000000      28.94998831      45.00000000      35.65632706       1.19198391
       7.00000000      29.40691482      45.00000000      35.65498813       1.19193915
       7.10000000      29.86388800      45.00000000      35.65363746       1.19189400
       7.20000000      30.32090826      45.00000000      35.65227545       1.19184847
       7.30000000      30.77797601      45.00000000      35.65090247       1.19180257
       7.40000000      31.23509162      45.00000000      35.64951893       1.19175632
       7.50000000      31.69225547      45.00000000      35.64812521       1.19170973
       7.60000000      32.14946791      45.00000000      35.64672172       1.19166281
       7.70000000      32.60672929      45.00000000      35.64530885       1.19161558
       7.80000000      33.06403993      45.00000000      35.64388700       1.19156804
       7.90000000      33.52140017      45.00000000      35.64245658       1.19152023
       8.00000000      33.97881029      45.00000000      35.64101800       1.19147213
       8.10000000      34.43627059      45.00000000      35.63957165       1.19142378
       8.20000000      34.95089607      45.00000000      35.63791771       1.19136849
       8.30000000      35.40846430      45.00000000      35.63645601       1.19131963
       8.40000000      35.86608353      45.00000000      35.63498784       1.19127055
       8.50000000      36.32375400      45.00000000      35.63351359       1.19122126
       8.60000000      36.83861876      45.00000000      35.63182945       1.19116496
       8.70000000      37.29639924      45.00000000      35.63034348       1.19111529
       8.80000000      37.81138916      45.00000000      35.62864677       1.19105857
       8.90000000      38.26928053      45.00000000      35.62715096       1.19100856
       9.00000000      38.78439653      45.00000000      35.62544381       1.19095149
       9.10000000      39.24239953      45.00000000      35.62394004       1.19090122
       9.20000000      39.75764241      45.00000000      35.62222459       1.19084387
       9.30000000      40.27295296      45.00000000      35.62050549       1.19078641
       9.40000000      40.73112804      45.00000000      35.61899313       1.19073585
       9.50000000      41.24656638      45.00000000      35.61726900       1.19067821
       9.60000000      41.76207278      45.00000000      35.61554297       1.19062051
       9.70000000      42.27764735      45.00000000      35.61381565       1.19056277
       9.80000000      42.79329015      45.00000000      35.61208762       1.19050500
       9.90000000      43.30900123      45.00000000      35.61035950       1.19044723
      10.00000000      43.82478063      45.00000000      35.60863189       1.19038947
      10.10000000      44.34062833      45.00000000      35.60690537       1.19033176
      10.20000000      44.85654432      45.00000000      35.60518057       1.19027410
      10.30000000      45.37252855      45.00000000      35.60345806       1.19021651
      10.40000000      45.94586489      45.00000000      35.60152741       1.19015197
      10.50000000      46.46199346      45.00000000      35.59981154       1.19009461
      10.60000000      46.97818999      45.00000000      35.59809984       1.19003739
      10.70000000      47.55176341      45.00000000      35.59618280       1.18997330
      10.80000000      48.12542152      45.00000000      35.59427205       1.18990943
      10.90000000      48.64183705      45.00000000      35.59257741       1.18985278
      11.00000000      49.21565483      45.00000000      35.59068101       1.18978938
      11.10000000      49.78955649      45.00000000      35.58879325       1.18972627
      11.20000000      50.36354169      45.00000000      35.58691492       1.18966348
      11.30000000      50.93761005      45.00000000      35.58504684       1.18960103
      11.40000000      51.51176114      45.00000000      35.58318978       1.18953895
      11.50000000      52.08599452      45.00000000      35.58134455       1.18947726
      11.60000000      52.71769867      45.00000000      35.57930922       1.18940922
      11.70000000      53.29210380      45.00000000      35.57749122       1.18934845
      11.80000000      53.92399680      45.00000000      35.57548741       1.18928146
      11.90000000      54.55598791      45.00000000      35.57350152       1.18921507
      12.00000000      55.18807631      45.00000000      35.57153459       1.18914932
      12.10000000      55.82026110      45.00000000      35.56958763       1.18908423
      12.20000000      56.45254136      45.00000000      35.56766164       1.18901985
      12.30000000      57.14237084      45.00000000      35.56556627       1.18894980
      12.40000000      57.77484807      45.00000000      35.56368721       1.18888698
      12.50000000      58.46489121      45.00000000      35.56164509       1.18881871
      12.60000000      59.15504403      45.00000000      35.55963252       1.18875143
      12.70000000      59.84530499      45.00000000      35.55765074       1.18868518
      12.80000000      60.59317575      45.00000000      35.55552155       1.18861400
      12.90000000      61.28365735      45.00000000      35.55360774       1.18855003
      13.00000000      62.03176447      45.00000000      35.55155474       1.18848140
      13.10000000      62.83752469      45.00000000      35.54937317       1.18840847
      13.20000000      63.58587878      45.00000000      35.54740844       1.18834279
      13.30000000      64.39190064      45.00000000      35.54532508       1.18827314
      13.40000000      65.19805379      45.00000000      35.54329521       1.18820528
      13.50000000      66.06190828      45.00000000      35.54116507       1.18813407
      13.60000000      66.92590678      45.00000000      35.53910019       1.18806504
      13.70000000      67.84763899      45.00000000      35.53695619       1.18799337
      13.80000000      68.76952585      45.00000000      35.53489099       1.18792433
      13.90000000      69.74917643      45.00000000      35.53277073       1.18785345
      14.00000000      70.78661495      45.00000000      35.53061426       1.18778136
      14.10000000      71.88186457      45.00000000      35.52844225       1.18770875
      14.20000000      72.97729961      45.00000000      35.52639440       1.18764029
      14.30000000      74.18822313      45.00000000      35.52425366       1.18756873
      14.40000000      75.51468351      45.00000000      35.52206891       1.18749569
      14.50000000      76.95672502      45.00000000      35.51989561       1.18742304
      14.60000000      78.57207513      45.00000000      35.51771441       1.18735012
      14.70000000      80.41849247      45.00000000      35.51556088       1.18727813
      14.80000000      82.72689066      45.00000000      35.51338249       1.18720530
      14.90000000      86.24779264      45.00000000      35.51119176       1.18713207
      15.00000000      90.00000000      45.00000000      35.51055549       1.18711080
      15.10000000      90.00000000      45.00000000      35.51081076       1.18711933
      15.20000000      90.00000000      45.00000000      35.51106600       1.18712786
      15.30000000      90.00000000      45.00000000      35.51132123       1.18713640
      15.40000000      90.00000000      45.00000000      35.51157644       1.18714493
      15.50000000      90.00000000      45.00000000      35.51183162       1.18715346
      15.60000000      90.00000000      45.00000000      35.51208679       1.18716199
      15.70000000      90.00000000      45.00000000      35.51234193       1.18717052
      15.80000000      90.00000000      45.00000000      35.51259705       1.18717905
      15.90000000      90.00000000      45.00000000      35.51285214       1.18718758
      16.00000000      90.00000000      45.00000000      35.51310722       1.18719610
      16.10000000      90.00000000      45.00000000      35.51336228       1.18720463
      16.20000000      90.00000000      45.00000000      35.51361731       1.18721315
      16.30000000      90.00000000      45.00000000      35.51387232       1.18722168
      16.40000000      90.00000000      45.00000000      35.51412731       1.18723020
      16.50000000      90.00000000      45.00000000      35.51438228       1.18723873
      16.60000000      90.00000000      45.00000000      35.51463723       1.18724725
      16.70000000      90.00000000      45.00000000      35.51489216       1.18725577
      16.80000000      90.00000000      45.00000000      35.51514706       1.18726429
      16.90000000      90.00000000      45.00000000      35.51540194       1.18727281
      17.00000000      90.00000000      45.00000000      35.51565680       1.18728133
      17.10000000      90.00000000      45.00000000      35.51591164       1.18728985
      17.20000000      90.00000000      45.00000000      35.51616646       1.18729837
      17.30000000      90.00000000      45.00000000      35.51642126       1.18730689
      17.40000000      90.00000000      45.00000000      35.51667604       1.18731541
      17.50000000      90.00000000      45.00000000      35.51693079       1.18732392
      17.60000000      90.00000000      45.00000000      35.51718552       1.18733244
      17.70000000      90.00000000      45.00000000      35.51744024       1.18734095
      17.80000000      90.00000000      45.00000000      35.51769493       1.18734947
      17.90000000      90.00000000      45.00000000      35.51794960       1.18735798
      18.00000000      90.00000000      45.00000000      35.51820424       1.18736649
      18.10000000      90.00000000      45.00000000      35.51845887       1.18737501
      18.20000000      90.00000000      45.00000000      35.51871347       1.18738352
      18.30000000      90.00000000      45.00000000      35.51896806       1.18739203
      18.40000000      90.00000000      45.00000000      35.51922262       1.18740054
      18.50000000      90.00000000      45.00000000      35.51947716       1.18740905
      18.60000000      90.00000000      45.00000000      35.51973168       1.18741756
      18.70000000      90.00000000      45.00000000      35.51998618       1.18742606
      18.80000000      90.00000000      45.00000000      35.52024066       1.18743457
      18.90000000      90.00000000      45.00000000      35.52049511       1.18744308
      19.00000000      90.00000000      45.00000000      35.52074955       1.18745158
      19.10000000      90.00000000      45.00000000      35.52100396       1.18746009
      19.20000000      90.00000000      45.00000000      35.52125835       1.18746859
      19.30000000      90.00000000      45.00000000      35.52151272       1.18747710
      19.40000000      90.00000000      45.00000000      35.52176707       1.18748560
      19.50000000      90.00000000      45.00000000      35.52202140       1.18749410
      19.60000000      90.00000000      45.00000000      35.52227570       1.18750260
      19.70000000      90.00000000      45.00000000      35.52252999       1.18751110
      19.80000000      90.00000000      45.00000000      35.52278425       1.18751960
      19.90000000      90.00000000      45.00000000      35.52303850       1.18752810
      20.00000000      90.00000000      45.00000000      35.52329272       1.18753660
      20.10000000      90.00000000      45.00000000      35.52354692       1.18754510
      20.20000000      90.00000000      45.00000000      35.52380110       1.18755360
      20.30000000      90.00000000      45.00000000      35.52405526       1.18756209
      20.40000000      90.00000000      45.00000000      35.52430939       1.18757059
      20.50000000      90.00000000      45.00000000      35.52456351       1.18757908
      20.60000000      90.00000000      45.00000000      35.52481760       1.18758758
      20.70000000      90.00000000      45.00000000      35.52507168       1.18759607
      20.80000000      90.00000000      45.00000000      35.52532573       1.18760456
      20.90000000      90.00000000      45.00000000      35.52557976       1.18761306
      21.00000000      90.00000000      45.00000000      35.52583377       1.18762155
      21.10000000      90.00000000      45.00000000      35.52608776       1.18763004
      21.20000000      90.00000000      45.00000000      35.52634173       1.18763853
      21.30000000      90.00000000      45.00000000      35.52659567       1.18764702
      21.40000000      90.00000000      45.00000000      35.52684960       1.18765551
      21.50000000      90.00000000      45.00000000      35.52710350       1.18766400
      21.60000000      90.00000000      45.00000000      35.52735739       1.18767248
      21.70000000      90.00000000      45.00000000      35.52761125       1.18768097
      21.80000000      90.00000000      45.00000000      35.52786509       1.18768946
      21.90000000      90.00000000      45.00000000      35.52811891       1.18769794
      22.00000000      90.00000000      45.00000000      35.52837271       1.18770642
      22.10000000      90.00000000      45.00000000      35.52862649       1.18771491
      22.20000000      90.00000000      45.00000000      35.52888024       1.18772339
      22.30000000      90.00000000      45.00000000      35.52913398       1.18773187
      22.40000000      90.00000000      45.00000000      35.52938769       1.18774036
      22.50000000      90.00000000      45.00000000      35.52964139       1.18774884
      22.60000000      90.00000000      45.00000000      35.52989506       1.18775732
      22.70000000      90.00000000      45.00000000      35.53014871       1.18776580
      22.80000000      90.00000000      45.00000000      35.53040234       1.18777427
      22.90000000      90.00000000      45.00000000      35.53065595       1.18778275
      23.00000000      90.00000000      45.00000000      35.53090954       1.18779123
