 # applied field (T), theta (degree), phi (degree), abs for RE 3-4
     0.00000     0.00000     0.00000     4.70634     0.00000     0.00000     4.70634
     0.10000     0.25798   360.00000     4.70633     0.20716   360.00000     4.70633
     0.20000     0.51597   360.00000     4.70633     0.41434   360.00000     4.70633
     0.30000     0.77400   360.00000     4.70632     0.62152   360.00000     4.70633
     0.40000     1.08291   360.00000     4.70630     0.86955   360.00000     4.70632
     0.50000     1.34104   360.00000     4.70628     1.07679   360.00000     4.70631
     0.60000     1.59924   360.00000     4.70625     1.28408   360.00000     4.70630
     0.70000     1.85753   360.00000     4.70622     1.49142   360.00000     4.70628
     0.80000     2.11591   360.00000     4.70619     1.69881   360.00000     4.70627
     0.90000     2.37441   360.00000     4.70615     1.90627   360.00000     4.70625
     1.00000     2.68400   360.00000     4.70610     2.15468   360.00000     4.70623
     1.10000     2.94280   360.00000     4.70605     2.36230   360.00000     4.70620
     1.20000     3.20175   360.00000     4.70600     2.57001   360.00000     4.70618
     1.30000     3.46087   360.00000     4.70594     2.77782   360.00000     4.70615
     1.40000     3.72018   360.00000     4.70588     2.98573   360.00000     4.70613
     1.50000     4.03083   360.00000     4.70580     3.23474   360.00000     4.70609
     1.60000     4.29058   360.00000     4.70573     3.44290   360.00000     4.70606
     1.70000     4.55057   360.00000     4.70566     3.65120   360.00000     4.70602
     1.80000     4.81079   360.00000     4.70558     3.85963   360.00000     4.70599
     1.90000     5.07127   360.00000     4.70549     4.06821   360.00000     4.70595
     2.00000     5.38342   360.00000     4.70539     4.31807   360.00000     4.70590
     2.10000     5.64450   360.00000     4.70530     4.52699   360.00000     4.70586
     2.20000     5.90588   360.00000     4.70520     4.73608   360.00000     4.70581
     2.30000     6.21916   360.00000     4.70508     4.98659   360.00000     4.70576
     2.40000     6.48124   360.00000     4.70497     5.19608   360.00000     4.70571
     2.50000     6.74365   360.00000     4.70486     5.40577   360.00000     4.70566
     2.60000     7.05823   360.00000     4.70472     5.65702   360.00000     4.70559
     2.70000     7.32143   360.00000     4.70460     5.86716   360.00000     4.70554
     2.80000     7.58502   360.00000     4.70448     6.07752   360.00000     4.70548
     2.90000     7.90105   360.00000     4.70433     6.32961   360.00000     4.70541
     3.00000     8.16552   360.00000     4.70419     6.54049   360.00000     4.70534
     3.10000     8.48264   360.00000     4.70403     6.79321   360.00000     4.70527
     3.20000     8.74804   360.00000     4.70389     7.00463   360.00000     4.70520
     3.30000     9.01390   360.00000     4.70374     7.21632   360.00000     4.70513
     3.40000     9.33274   360.00000     4.70356     7.47005   360.00000     4.70505
     3.50000     9.65226   360.00000     4.70338     7.72419   360.00000     4.70496
     3.60000     9.91972   360.00000     4.70322     7.93682   360.00000     4.70488
     3.70000    10.24055   360.00000     4.70302     8.19173   360.00000     4.70479
     3.80000    10.50913   360.00000     4.70286     8.40503   360.00000     4.70471
     3.90000    10.83133   360.00000     4.70265     8.66075   360.00000     4.70461
     4.00000    11.15431   360.00000     4.70244     8.91694   360.00000     4.70451
     4.10000    11.42472   360.00000     4.70226     9.13134   360.00000     4.70443
     4.20000    11.74917   360.00000     4.70204     9.38843   360.00000     4.70432
     4.30000    12.07446   360.00000     4.70182     9.64601   360.00000     4.70421
     4.40000    12.40059   360.00000     4.70159     9.90412   360.00000     4.70410
     4.50000    12.67369   360.00000     4.70139    10.12016   360.00000     4.70400
     4.60000    13.00143   360.00000     4.70115    10.37925   360.00000     4.70389
     4.70000    13.33007   360.00000     4.70091    10.63890   360.00000     4.70377
     4.80000    13.65963   360.00000     4.70066    10.89913   360.00000     4.70364
     4.90000    13.99012   360.00000     4.70041    11.15994   360.00000     4.70352
     5.00000    14.32156   360.00000     4.70015    11.42135   360.00000     4.70339
     5.10000    14.65397   360.00000     4.69989    11.68337   360.00000     4.70326
     5.20000    15.04236   360.00000     4.69958    11.98931   360.00000     4.70310
     5.30000    15.37692   360.00000     4.69931    12.25271   360.00000     4.70296
     5.40000    15.71249   360.00000     4.69903    12.51677   360.00000     4.70282
     5.50000    16.04910   360.00000     4.69876    12.78150   360.00000     4.70268
     5.60000    16.44244   360.00000     4.69843    13.09067   360.00000     4.70251
     5.70000    16.78132   360.00000     4.69814    13.35690   360.00000     4.70236
     5.80000    17.17735   360.00000     4.69780    13.66786   360.00000     4.70218
     5.90000    17.57486   360.00000     4.69746    13.97981   360.00000     4.70200
     6.00000    17.91735   360.00000     4.69717    14.24849   360.00000     4.70184
     6.10000    18.31763   360.00000     4.69682    14.56234   360.00000     4.70165
     6.20000    18.71944   360.00000     4.69647    14.87726   360.00000     4.70146
     6.30000    19.12277   360.00000     4.69611    15.19326   360.00000     4.70127
     6.40000    19.52765   360.00000     4.69575    15.51036   360.00000     4.70107
     6.50000    19.93409   360.00000     4.69539    15.82859   360.00000     4.70086
     6.60000    20.34209   360.00000     4.69503    16.14796   360.00000     4.70066
     6.70000    20.80972   360.00000     4.69461    16.51391   360.00000     4.70042
     6.80000    21.22110   360.00000     4.69425    16.83581   360.00000     4.70020
     6.90000    21.69261   360.00000     4.69383    17.20470   360.00000     4.69996
     7.00000    22.16618   360.00000     4.69341    17.57521   360.00000     4.69970
     7.10000    22.64184   360.00000     4.69299    17.94737   360.00000     4.69945
     7.20000    23.11957   360.00000     4.69257    18.32121   360.00000     4.69918
     7.30000    23.65898   360.00000     4.69210    18.74339   360.00000     4.69888
     7.40000    24.14110   360.00000     4.69168    19.12091   360.00000     4.69861
     7.50000    24.68543   360.00000     4.69121    19.54732   360.00000     4.69830
     7.60000    25.23234   360.00000     4.69074    19.97602   360.00000     4.69799
     7.70000    25.78180   360.00000     4.69028    20.40706   360.00000     4.69767
     7.80000    26.39482   360.00000     4.68978    20.88840   360.00000     4.69731
     7.90000    27.01091   360.00000     4.68928    21.37274   360.00000     4.69694
     8.00000    27.63001   360.00000     4.68879    21.86014   360.00000     4.69656
     8.10000    28.31402   360.00000     4.68827    22.39951   360.00000     4.69615
     8.20000    29.06380   360.00000     4.68771    22.99198   360.00000     4.69568
     8.30000    29.81757   360.00000     4.68718    23.58910   360.00000     4.69521
     8.40000    30.57518   360.00000     4.68666    24.19098   360.00000     4.69474
     8.50000    31.46301   360.00000     4.68609    24.89869   360.00000     4.69417
     8.60000    90.00000   360.00000     4.70445    90.00000   360.00000     4.67236
     8.70000    90.00000   360.00000     4.70443    90.00000   360.00000     4.67233
     8.80000    90.00000   360.00000     4.70441    90.00000   360.00000     4.67231
     8.90000    90.00000   360.00000     4.70439    90.00000   360.00000     4.67229
     9.00000    90.00000   360.00000     4.70437    90.00000   360.00000     4.67227
     9.10000    90.00000   360.00000     4.70435    90.00000   360.00000     4.67224
     9.20000    90.00000   360.00000     4.70434    90.00000   360.00000     4.67222
     9.30000    90.00000   360.00000     4.70432    90.00000   360.00000     4.67220
     9.40000    90.00000   360.00000     4.70430    90.00000   360.00000     4.67218
     9.50000    90.00000   360.00000     4.70428    90.00000   360.00000     4.67216
     9.60000    90.00000   360.00000     4.70426    90.00000   360.00000     4.67213
     9.70000    90.00000   360.00000     4.70424    90.00000   360.00000     4.67211
     9.80000    90.00000   360.00000     4.70422    90.00000   360.00000     4.67209
     9.90000    90.00000   360.00000     4.70421    90.00000   360.00000     4.67207
    10.00000    90.00000   360.00000     4.70419    90.00000   360.00000     4.67204
    10.10000    90.00000   360.00000     4.70417    90.00000   360.00000     4.67202
    10.20000    90.00000   360.00000     4.70415    90.00000   360.00000     4.67200
    10.30000    90.00000   360.00000     4.70413    90.00000   360.00000     4.67198
    10.40000    90.00000   360.00000     4.70411    90.00000   360.00000     4.67195
    10.50000    90.00000   360.00000     4.70410    90.00000   360.00000     4.67193
    10.60000    90.00000   360.00000     4.70408    90.00000   360.00000     4.67191
    10.70000    90.00000   360.00000     4.70406    90.00000   360.00000     4.67189
    10.80000    90.00000   360.00000     4.70404    90.00000   360.00000     4.67187
    10.90000    90.00000   360.00000     4.70402    90.00000   360.00000     4.67184
    11.00000    90.00000   360.00000     4.70400    90.00000   360.00000     4.67182
    11.10000    90.00000   360.00000     4.70398    90.00000   360.00000     4.67180
    11.20000    90.00000   360.00000     4.70397    90.00000   360.00000     4.67178
    11.30000    90.00000   360.00000     4.70395    90.00000   360.00000     4.67175
    11.40000    90.00000   360.00000     4.70393    90.00000   360.00000     4.67173
    11.50000    90.00000   360.00000     4.70391    90.00000   360.00000     4.67171
    11.60000    90.00000   360.00000     4.70389    90.00000   360.00000     4.67169
    11.70000    90.00000   360.00000     4.70387    90.00000   360.00000     4.67167
    11.80000    90.00000   360.00000     4.70385    90.00000   360.00000     4.67164
    11.90000    90.00000   360.00000     4.70384    90.00000   360.00000     4.67162
    12.00000    90.00000   360.00000     4.70382    90.00000   360.00000     4.67160
    12.10000    90.00000   360.00000     4.70380    90.00000   360.00000     4.67158
    12.20000    90.00000   360.00000     4.70378    90.00000   360.00000     4.67155
    12.30000    90.00000   360.00000     4.70376    90.00000   360.00000     4.67153
    12.40000    90.00000   360.00000     4.70374    90.00000   360.00000     4.67151
    12.50000    90.00000   360.00000     4.70373    90.00000   360.00000     4.67149
    12.60000    90.00000   360.00000     4.70371    90.00000   360.00000     4.67146
    12.70000    90.00000   360.00000     4.70369    90.00000   360.00000     4.67144
    12.80000    90.00000   360.00000     4.70367    90.00000   360.00000     4.67142
    12.90000    90.00000   360.00000     4.70365    90.00000   360.00000     4.67140
    13.00000    90.00000   360.00000     4.70363    90.00000   360.00000     4.67137
    13.10000    90.00000   360.00000     4.70361    90.00000   360.00000     4.67135
    13.20000    90.00000   360.00000     4.70360    90.00000   360.00000     4.67133
    13.30000    90.00000   360.00000     4.70358    90.00000   360.00000     4.67131
    13.40000    90.00000   360.00000     4.70356    90.00000   360.00000     4.67129
    13.50000    90.00000   360.00000     4.70354    90.00000   360.00000     4.67126
    13.60000    90.00000   360.00000     4.70352    90.00000   360.00000     4.67124
    13.70000    90.00000   360.00000     4.70350    90.00000   360.00000     4.67122
    13.80000    90.00000   360.00000     4.70348    90.00000   360.00000     4.67120
    13.90000    90.00000   360.00000     4.70347    90.00000   360.00000     4.67117
    14.00000    90.00000   360.00000     4.70345    90.00000   360.00000     4.67115
    14.10000    90.00000   360.00000     4.70343    90.00000   360.00000     4.67113
    14.20000    90.00000   360.00000     4.70341    90.00000   360.00000     4.67111
    14.30000    90.00000   360.00000     4.70339    90.00000   360.00000     4.67108
    14.40000    90.00000   360.00000     4.70337    90.00000   360.00000     4.67106
    14.50000    90.00000   360.00000     4.70335    90.00000   360.00000     4.67104
    14.60000    90.00000   360.00000     4.70334    90.00000   360.00000     4.67102
    14.70000    90.00000   360.00000     4.70332    90.00000   360.00000     4.67099
    14.80000    90.00000   360.00000     4.70330    90.00000   360.00000     4.67097
    14.90000    90.00000   360.00000     4.70328    90.00000   360.00000     4.67095
    15.00000    90.00000   360.00000     4.70326    90.00000   360.00000     4.67093
    15.10000    90.00000   360.00000     4.70324    90.00000   360.00000     4.67090
    15.20000    90.00000   360.00000     4.70322    90.00000   360.00000     4.67088
    15.30000    90.00000   360.00000     4.70321    90.00000   360.00000     4.67086
    15.40000    90.00000   360.00000     4.70319    90.00000   360.00000     4.67084
    15.50000    90.00000   360.00000     4.70317    90.00000   360.00000     4.67082
    15.60000    90.00000   360.00000     4.70315    90.00000   360.00000     4.67079
    15.70000    90.00000   360.00000     4.70313    90.00000   360.00000     4.67077
    15.80000    90.00000   360.00000     4.70311    90.00000   360.00000     4.67075
    15.90000    90.00000   360.00000     4.70309    90.00000   360.00000     4.67073
    16.00000    90.00000   360.00000     4.70308    90.00000   360.00000     4.67070
    16.10000    90.00000   360.00000     4.70306    90.00000   360.00000     4.67068
    16.20000    90.00000   360.00000     4.70304    90.00000   360.00000     4.67066
    16.30000    90.00000   360.00000     4.70302    90.00000   360.00000     4.67064
    16.40000    90.00000   360.00000     4.70300    90.00000   360.00000     4.67061
    16.50000    90.00000   360.00000     4.70298    90.00000   360.00000     4.67059
    16.60000    90.00000   360.00000     4.70296    90.00000   360.00000     4.67057
    16.70000    90.00000   360.00000     4.70295    90.00000   360.00000     4.67055
    16.80000    90.00000   360.00000     4.70293    90.00000   360.00000     4.67052
    16.90000    90.00000   360.00000     4.70291    90.00000   360.00000     4.67050
    17.00000    90.00000   360.00000     4.70289    90.00000   360.00000     4.67048
    17.10000    90.00000   360.00000     4.70287    90.00000   360.00000     4.67046
    17.20000    90.00000   360.00000     4.70285    90.00000   360.00000     4.67043
    17.30000    90.00000   360.00000     4.70283    90.00000   360.00000     4.67041
    17.40000    90.00000   360.00000     4.70282    90.00000   360.00000     4.67039
    17.50000    90.00000   360.00000     4.70280    90.00000   360.00000     4.67037
    17.60000    90.00000   360.00000     4.70278    90.00000   360.00000     4.67034
    17.70000    90.00000   360.00000     4.70276    90.00000   360.00000     4.67032
    17.80000    90.00000   360.00000     4.70274    90.00000   360.00000     4.67030
    17.90000    90.00000   360.00000     4.70272    90.00000   360.00000     4.67028
    18.00000    90.00000   360.00000     4.70270    90.00000   360.00000     4.67025
    18.10000    90.00000   360.00000     4.70268    90.00000   360.00000     4.67023
    18.20000    90.00000   360.00000     4.70267    90.00000   360.00000     4.67021
    18.30000    90.00000   360.00000     4.70265    90.00000   360.00000     4.67019
    18.40000    90.00000   360.00000     4.70263    90.00000   360.00000     4.67016
    18.50000    90.00000   360.00000     4.70261    90.00000   360.00000     4.67014
    18.60000    90.00000   360.00000     4.70259    90.00000   360.00000     4.67012
    18.70000    90.00000   360.00000     4.70257    90.00000   360.00000     4.67010
    18.80000    90.00000   360.00000     4.70255    90.00000   360.00000     4.67007
    18.90000    90.00000   360.00000     4.70254    90.00000   360.00000     4.67005
    19.00000    90.00000   360.00000     4.70252    90.00000   360.00000     4.67003
    19.10000    90.00000   360.00000     4.70250    90.00000   360.00000     4.67001
    19.20000    90.00000   360.00000     4.70248    90.00000   360.00000     4.66998
    19.30000    90.00000   360.00000     4.70246    90.00000   360.00000     4.66996
    19.40000    90.00000   360.00000     4.70244    90.00000   360.00000     4.66994
    19.50000    90.00000   360.00000     4.70242    90.00000   360.00000     4.66992
    19.60000    90.00000   360.00000     4.70240    90.00000   360.00000     4.66989
    19.70000    90.00000   360.00000     4.70239    90.00000   360.00000     4.66987
    19.80000    90.00000   360.00000     4.70237    90.00000   360.00000     4.66985
    19.90000    90.00000   360.00000     4.70235    90.00000   360.00000     4.66983
    20.00000    90.00000   360.00000     4.70233    90.00000   360.00000     4.66980
    20.10000    90.00000   360.00000     4.70231    90.00000   360.00000     4.66978
    20.20000    90.00000   360.00000     4.70229    90.00000   360.00000     4.66976
    20.30000    90.00000   360.00000     4.70227    90.00000   360.00000     4.66974
    20.40000    90.00000   360.00000     4.70225    90.00000   360.00000     4.66971
    20.50000    90.00000   360.00000     4.70224    90.00000   360.00000     4.66969
    20.60000    90.00000   360.00000     4.70222    90.00000   360.00000     4.66967
    20.70000    90.00000   360.00000     4.70220    90.00000   360.00000     4.66964
    20.80000    90.00000   360.00000     4.70218    90.00000   360.00000     4.66962
    20.90000    90.00000   360.00000     4.70216    90.00000   360.00000     4.66960
    21.00000    90.00000   360.00000     4.70214    90.00000   360.00000     4.66958
    21.10000    90.00000   360.00000     4.70212    90.00000   360.00000     4.66955
    21.20000    90.00000   360.00000     4.70211    90.00000   360.00000     4.66953
    21.30000    90.00000   360.00000     4.70209    90.00000   360.00000     4.66951
    21.40000    90.00000   360.00000     4.70207    90.00000   360.00000     4.66949
    21.50000    90.00000   360.00000     4.70205    90.00000   360.00000     4.66946
    21.60000    90.00000   360.00000     4.70203    90.00000   360.00000     4.66944
    21.70000    90.00000   360.00000     4.70201    90.00000   360.00000     4.66942
    21.80000    90.00000   360.00000     4.70199    90.00000   360.00000     4.66940
    21.90000    90.00000   360.00000     4.70197    90.00000   360.00000     4.66937
    22.00000    90.00000   360.00000     4.70196    90.00000   360.00000     4.66935
    22.10000    90.00000   360.00000     4.70194    90.00000   360.00000     4.66933
    22.20000    90.00000   360.00000     4.70192    90.00000   360.00000     4.66931
    22.30000    90.00000   360.00000     4.70190    90.00000   360.00000     4.66928
    22.40000    90.00000   360.00000     4.70188    90.00000   360.00000     4.66926
    22.50000    90.00000   360.00000     4.70186    90.00000   360.00000     4.66924
    22.60000    90.00000   360.00000     4.70184    90.00000   360.00000     4.66922
    22.70000    90.00000   360.00000     4.70182    90.00000   360.00000     4.66919
    22.80000    90.00000   360.00000     4.70181    90.00000   360.00000     4.66917
    22.90000    90.00000   360.00000     4.70179    90.00000   360.00000     4.66915
    23.00000    90.00000   360.00000     4.70177    90.00000   360.00000     4.66912
    23.10000    90.00000   360.00000     4.70175    90.00000   360.00000     4.66910
    23.20000    90.00000   360.00000     4.70173    90.00000   360.00000     4.66908
    23.30000    90.00000   360.00000     4.70171    90.00000   360.00000     4.66906
