 # applied field (T), theta (degree), phi (degree), abs [muB/unitcell], abs [T]
       0.00000000       0.00000000       0.00000000      47.46412531       1.65283203
       0.10000000       0.28366148     360.00000000      47.46411918       1.65283182
       0.20000000       0.56732339     360.00000000      47.46410078       1.65283118
       0.30000000       0.90759431     360.00000000      47.46406184       1.65282982
       0.40000000       1.19125869     360.00000000      47.46401626       1.65282824
       0.50000000       1.47492489     360.00000000      47.46395842       1.65282622
       0.60000000       1.75859333     360.00000000      47.46388836       1.65282378
       0.70000000       2.04226445     360.00000000      47.46380607       1.65282092
       0.80000000       2.38254943     360.00000000      47.46368947       1.65281686
       0.90000000       2.66622797     360.00000000      47.46358015       1.65281305
       1.00000000       2.94991057     360.00000000      47.46345867       1.65280882
       1.10000000       3.23359764     360.00000000      47.46332505       1.65280417
       1.20000000       3.51728964     360.00000000      47.46317932       1.65279909
       1.30000000       3.85760271     360.00000000      47.46298569       1.65279235
       1.40000000       4.14130705     360.00000000      47.46281323       1.65278634
       1.50000000       4.42501768     360.00000000      47.46262876       1.65277992
       1.60000000       4.70873503     360.00000000      47.46243232       1.65277308
       1.70000000       5.04908100     360.00000000      47.46217717       1.65276419
       1.80000000       5.33281465     360.00000000      47.46195434       1.65275643
       1.90000000       5.61655638     360.00000000      47.46171968       1.65274826
       2.00000000       5.90030662     360.00000000      47.46147323       1.65273968
       2.10000000       6.24069456     360.00000000      47.46115746       1.65272868
       2.20000000       6.52446504     360.00000000      47.46088506       1.65271920
       2.30000000       6.80824538     360.00000000      47.46060105       1.65270931
       2.40000000       7.09203600     360.00000000      47.46030548       1.65269902
       2.50000000       7.43247491     360.00000000      47.45993021       1.65268595
       2.60000000       7.71628968     360.00000000      47.45960922       1.65267477
       2.70000000       8.00011608     360.00000000      47.45927689       1.65266320
       2.80000000       8.28395452     360.00000000      47.45893326       1.65265123
       2.90000000       8.62445332     360.00000000      47.45849983       1.65263614
       3.00000000       8.90831977     360.00000000      47.45813142       1.65262331
       3.10000000       9.19219960     360.00000000      47.45775196       1.65261010
       3.20000000       9.53274998     360.00000000      47.45727520       1.65259349
       3.30000000       9.81666073     360.00000000      47.45687150       1.65257943
       3.40000000      10.10058617     360.00000000      47.45645700       1.65256500
       3.50000000      10.44119321     360.00000000      47.45593790       1.65254692
       3.60000000      10.72515246     360.00000000      47.45549977       1.65253167
       3.70000000      11.06580139     360.00000000      47.45495212       1.65251260
       3.80000000      11.34979642     360.00000000      47.45449078       1.65249653
       3.90000000      11.63380833     360.00000000      47.45401914       1.65248011
       4.00000000      11.97452235     360.00000000      47.45343106       1.65245963
       4.10000000      12.25857285     360.00000000      47.45293691       1.65244242
       4.20000000      12.59933451     360.00000000      47.45232166       1.65242100
       4.30000000      12.88342553     360.00000000      47.45180551       1.65240302
       4.40000000      13.22423712     360.00000000      47.45116373       1.65238067
       4.50000000      13.50837056     360.00000000      47.45062609       1.65236195
       4.60000000      13.84923435     360.00000000      47.44995843       1.65233870
       4.70000000      14.13341208     360.00000000      47.44939987       1.65231925
       4.80000000      14.47433033     360.00000000      47.44870700       1.65229512
       4.90000000      14.75855420     360.00000000      47.44812809       1.65227497
       5.00000000      15.09952911     360.00000000      47.44741073       1.65224998
       5.10000000      15.38380095     360.00000000      47.44681207       1.65222914
       5.20000000      15.72483470     360.00000000      47.44607095       1.65220333
       5.30000000      16.06590152     360.00000000      47.44531708       1.65217708
       5.40000000      16.35025106     360.00000000      47.44468905       1.65215521
       5.50000000      16.69138003     360.00000000      47.44391262       1.65212817
       5.60000000      17.03254384     360.00000000      47.44312411       1.65210071
       5.70000000      17.31697527     360.00000000      47.44246828       1.65207788
       5.80000000      17.65820446     360.00000000      47.44165847       1.65204968
       5.90000000      17.99947023     360.00000000      47.44083729       1.65202108
       6.00000000      18.34077317     360.00000000      47.44000500       1.65199210
       6.10000000      18.62532187     360.00000000      47.43931417       1.65196804
       6.20000000      18.96669439     360.00000000      47.43846238       1.65193838
       6.30000000      19.30810574     360.00000000      47.43760023       1.65190836
       6.40000000      19.64955649     360.00000000      47.43672799       1.65187798
       6.50000000      19.99104721     360.00000000      47.43584594       1.65184727
       6.60000000      20.33257845     360.00000000      47.43495436       1.65181622
       6.70000000      20.67415076     360.00000000      47.43405354       1.65178485
       6.80000000      21.01576467     360.00000000      47.43314377       1.65175317
       6.90000000      21.35742072     360.00000000      47.43222533       1.65172119
       7.00000000      21.69911942     360.00000000      47.43129852       1.65168891
       7.10000000      22.04086128     360.00000000      47.43036364       1.65165636
       7.20000000      22.38264680     360.00000000      47.42942100       1.65162353
       7.30000000      22.72447647     360.00000000      47.42847090       1.65159045
       7.40000000      23.06635077     360.00000000      47.42751365       1.65155711
       7.50000000      23.46516233     360.00000000      47.42637457       1.65151745
       7.60000000      23.80713508     360.00000000      47.42540272       1.65148361
       7.70000000      24.14915391     360.00000000      47.42442473       1.65144955
       7.80000000      24.54813638     360.00000000      47.42326216       1.65140906
       7.90000000      24.89025669     360.00000000      47.42227178       1.65137458
       8.00000000      25.28935907     360.00000000      47.42109526       1.65133361
       8.10000000      25.63158278     360.00000000      47.42009404       1.65129874
       8.20000000      26.03080725     360.00000000      47.41890540       1.65125735
       8.30000000      26.37313618     360.00000000      47.41789490       1.65122216
       8.40000000      26.77248478     360.00000000      47.41669598       1.65118041
       8.50000000      27.17190111     360.00000000      47.41549221       1.65113849
       8.60000000      27.51439521     360.00000000      47.41447048       1.65110291
       8.70000000      27.91393851     360.00000000      47.41325932       1.65106074
       8.80000000      28.31355098     360.00000000      47.41204489       1.65101845
       8.90000000      28.71323307     360.00000000      47.41082774       1.65097606
       9.00000000      29.11298519     360.00000000      47.40960842       1.65093360
       9.10000000      29.56984914     360.00000000      47.40819861       1.65088451
       9.20000000      29.96975284     360.00000000      47.40697638       1.65084195
       9.30000000      30.36972773     360.00000000      47.40575376       1.65079937
       9.40000000      30.82684826     360.00000000      47.40434182       1.65075021
       9.50000000      31.22697689     360.00000000      47.40312009       1.65070766
       9.60000000      31.68427430     360.00000000      47.40171032       1.65065857
       9.70000000      32.08455778     360.00000000      47.40049209       1.65061615
       9.80000000      32.54203317     360.00000000      47.39908746       1.65056724
       9.90000000      32.99960394     360.00000000      47.39768671       1.65051846
      10.00000000      33.45727027     360.00000000      47.39629068       1.65046984
      10.10000000      33.91503225     360.00000000      47.39490021       1.65042142
      10.20000000      34.43005979     360.00000000      47.39332938       1.65036672
      10.30000000      34.88802539     360.00000000      47.39195336       1.65031881
      10.40000000      35.40328247     360.00000000      47.39040056       1.65026473
      10.50000000      35.91866099     360.00000000      47.38885895       1.65021105
      10.60000000      36.43416068     360.00000000      47.38732966       1.65015780
      10.70000000      36.94978116     360.00000000      47.38581386       1.65010501
      10.80000000      37.46552195     360.00000000      47.38431268       1.65005274
      10.90000000      38.03864833     360.00000000      47.38264952       1.64999482
      11.00000000      38.61192230     360.00000000      47.38100699       1.64993762
      11.10000000      39.18534282     360.00000000      47.37938657       1.64988120
      11.20000000      39.81622078     360.00000000      47.37761865       1.64981963
      11.30000000      40.38994526     360.00000000      47.37604921       1.64976498
      11.40000000      41.07849901     360.00000000      47.37417497       1.64969971
      11.50000000      41.70989503     360.00000000      47.37250281       1.64964148
      11.60000000      42.39883605     360.00000000      47.37070702       1.64957895
      11.70000000      43.14536946     360.00000000      47.36880012       1.64951255
      11.80000000      43.89213051     360.00000000      47.36694723       1.64944802
      11.90000000      44.69654546     360.00000000      47.36500441       1.64938037
      12.00000000      45.55866323     360.00000000      47.36298848       1.64931017
      12.10000000      46.47853295     360.00000000      47.36091826       1.64923808
      12.20000000      47.51369571     360.00000000      47.35868589       1.64916034
      12.30000000      48.60674782     360.00000000      47.35645717       1.64908273
      12.40000000      49.81526990     360.00000000      47.35414548       1.64900223
      12.50000000      51.25449112     360.00000000      47.35159948       1.64891357
      12.60000000      52.98224544     360.00000000      47.34885607       1.64881804
      12.70000000      90.00000000     360.00000000      47.34278936       1.64860678
      12.80000000      90.00000000     360.00000000      47.34295680       1.64861261
      12.90000000      90.00000000     360.00000000      47.34312421       1.64861844
      13.00000000      90.00000000     360.00000000      47.34329158       1.64862427
      13.10000000      90.00000000     360.00000000      47.34345892       1.64863010
      13.20000000      90.00000000     360.00000000      47.34362624       1.64863592
      13.30000000      90.00000000     360.00000000      47.34379352       1.64864175
      13.40000000      90.00000000     360.00000000      47.34396077       1.64864757
      13.50000000      90.00000000     360.00000000      47.34412800       1.64865339
      13.60000000      90.00000000     360.00000000      47.34429519       1.64865922
      13.70000000      90.00000000     360.00000000      47.34446235       1.64866504
      13.80000000      90.00000000     360.00000000      47.34462948       1.64867086
      13.90000000      90.00000000     360.00000000      47.34479658       1.64867668
      14.00000000      90.00000000     360.00000000      47.34496365       1.64868249
      14.10000000      90.00000000     360.00000000      47.34513069       1.64868831
      14.20000000      90.00000000     360.00000000      47.34529770       1.64869413
      14.30000000      90.00000000     360.00000000      47.34546468       1.64869994
      14.40000000      90.00000000     360.00000000      47.34563163       1.64870576
      14.50000000      90.00000000     360.00000000      47.34579855       1.64871157
      14.60000000      90.00000000     360.00000000      47.34596544       1.64871738
      14.70000000      90.00000000     360.00000000      47.34613229       1.64872319
      14.80000000      90.00000000     360.00000000      47.34629912       1.64872900
      14.90000000      90.00000000     360.00000000      47.34646592       1.64873481
      15.00000000      90.00000000     360.00000000      47.34663269       1.64874061
      15.10000000      90.00000000     360.00000000      47.34679942       1.64874642
      15.20000000      90.00000000     360.00000000      47.34696613       1.64875223
      15.30000000      90.00000000     360.00000000      47.34713281       1.64875803
      15.40000000      90.00000000     360.00000000      47.34729945       1.64876383
      15.50000000      90.00000000     360.00000000      47.34746607       1.64876964
      15.60000000      90.00000000     360.00000000      47.34763265       1.64877544
      15.70000000      90.00000000     360.00000000      47.34779921       1.64878124
      15.80000000      90.00000000     360.00000000      47.34796573       1.64878704
      15.90000000      90.00000000     360.00000000      47.34813223       1.64879283
      16.00000000      90.00000000     360.00000000      47.34829869       1.64879863
      16.10000000      90.00000000     360.00000000      47.34846513       1.64880443
      16.20000000      90.00000000     360.00000000      47.34863153       1.64881022
      16.30000000      90.00000000     360.00000000      47.34879791       1.64881601
      16.40000000      90.00000000     360.00000000      47.34896425       1.64882181
      16.50000000      90.00000000     360.00000000      47.34913057       1.64882760
      16.60000000      90.00000000     360.00000000      47.34929685       1.64883339
      16.70000000      90.00000000     360.00000000      47.34946311       1.64883918
      16.80000000      90.00000000     360.00000000      47.34962933       1.64884497
      16.90000000      90.00000000     360.00000000      47.34979553       1.64885075
      17.00000000      90.00000000     360.00000000      47.34996169       1.64885654
      17.10000000      90.00000000     360.00000000      47.35012782       1.64886233
      17.20000000      90.00000000     360.00000000      47.35029393       1.64886811
      17.30000000      90.00000000     360.00000000      47.35046000       1.64887389
      17.40000000      90.00000000     360.00000000      47.35062605       1.64887967
      17.50000000      90.00000000     360.00000000      47.35079206       1.64888546
      17.60000000      90.00000000     360.00000000      47.35095805       1.64889124
      17.70000000      90.00000000     360.00000000      47.35112400       1.64889701
      17.80000000      90.00000000     360.00000000      47.35128993       1.64890279
      17.90000000      90.00000000     360.00000000      47.35145582       1.64890857
      18.00000000      90.00000000     360.00000000      47.35162169       1.64891435
      18.10000000      90.00000000     360.00000000      47.35178753       1.64892012
      18.20000000      90.00000000     360.00000000      47.35195333       1.64892589
      18.30000000      90.00000000     360.00000000      47.35211911       1.64893167
      18.40000000      90.00000000     360.00000000      47.35228485       1.64893744
      18.50000000      90.00000000     360.00000000      47.35245057       1.64894321
      18.60000000      90.00000000     360.00000000      47.35261626       1.64894898
      18.70000000      90.00000000     360.00000000      47.35278191       1.64895475
      18.80000000      90.00000000     360.00000000      47.35294754       1.64896052
      18.90000000      90.00000000     360.00000000      47.35311314       1.64896628
      19.00000000      90.00000000     360.00000000      47.35327871       1.64897205
      19.10000000      90.00000000     360.00000000      47.35344424       1.64897781
      19.20000000      90.00000000     360.00000000      47.35360975       1.64898358
      19.30000000      90.00000000     360.00000000      47.35377523       1.64898934
      19.40000000      90.00000000     360.00000000      47.35394068       1.64899510
      19.50000000      90.00000000     360.00000000      47.35410610       1.64900086
      19.60000000      90.00000000     360.00000000      47.35427149       1.64900662
      19.70000000      90.00000000     360.00000000      47.35443685       1.64901238
      19.80000000      90.00000000     360.00000000      47.35460218       1.64901813
      19.90000000      90.00000000     360.00000000      47.35476748       1.64902389
      20.00000000      90.00000000     360.00000000      47.35493275       1.64902965
      20.10000000      90.00000000     360.00000000      47.35509799       1.64903540
      20.20000000      90.00000000     360.00000000      47.35526321       1.64904115
      20.30000000      90.00000000     360.00000000      47.35542839       1.64904691
      20.40000000      90.00000000     360.00000000      47.35559354       1.64905266
      20.50000000      90.00000000     360.00000000      47.35575867       1.64905841
      20.60000000      90.00000000     360.00000000      47.35592376       1.64906416
      20.70000000      90.00000000     360.00000000      47.35608882       1.64906990
      20.80000000      90.00000000     360.00000000      47.35625386       1.64907565
      20.90000000      90.00000000     360.00000000      47.35641887       1.64908140
      21.00000000      90.00000000     360.00000000      47.35658384       1.64908714
      21.10000000      90.00000000     360.00000000      47.35674879       1.64909289
      21.20000000      90.00000000     360.00000000      47.35691371       1.64909863
      21.30000000      90.00000000     360.00000000      47.35707860       1.64910437
      21.40000000      90.00000000     360.00000000      47.35724345       1.64911011
      21.50000000      90.00000000     360.00000000      47.35740828       1.64911585
      21.60000000      90.00000000     360.00000000      47.35757308       1.64912159
      21.70000000      90.00000000     360.00000000      47.35773785       1.64912733
      21.80000000      90.00000000     360.00000000      47.35790260       1.64913306
      21.90000000      90.00000000     360.00000000      47.35806731       1.64913880
      22.00000000      90.00000000     360.00000000      47.35823199       1.64914453
      22.10000000      90.00000000     360.00000000      47.35839664       1.64915027
      22.20000000      90.00000000     360.00000000      47.35856127       1.64915600
      22.30000000      90.00000000     360.00000000      47.35872586       1.64916173
      22.40000000      90.00000000     360.00000000      47.35889043       1.64916746
      22.50000000      90.00000000     360.00000000      47.35905497       1.64917319
      22.60000000      90.00000000     360.00000000      47.35921947       1.64917892
      22.70000000      90.00000000     360.00000000      47.35938395       1.64918465
      22.80000000      90.00000000     360.00000000      47.35954840       1.64919038
      22.90000000      90.00000000     360.00000000      47.35971282       1.64919610
      23.00000000      90.00000000     360.00000000      47.35987721       1.64920183
