 # applied field (T), theta (degree), phi (degree), abs for RE 3-4
     0.00000     0.00000     0.00000     3.85910     0.00000     0.00000     3.85910
     0.10000     0.21699    48.73167     3.85909     0.21699    41.26833     3.85909
     0.20000     0.47688    48.73180     3.85906     0.47688    41.26820     3.85906
     0.30000     0.69388    48.73157     3.85901     0.69388    41.26843     3.85901
     0.40000     0.91091    48.73131     3.85894     0.91091    41.26869     3.85894
     0.50000     1.17085    48.73105     3.85883     1.17085    41.26895     3.85883
     0.60000     1.38792    48.73068     3.85872     1.38792    41.26932     3.85872
     0.70000     1.60502    48.73026     3.85859     1.60502    41.26974     3.85859
     0.80000     1.86508    48.72974     3.85842     1.86508    41.27026     3.85842
     0.90000     2.08226    48.72920     3.85825     2.08226    41.27080     3.85825
     1.00000     2.29949    48.72860     3.85806     2.29949    41.27140     3.85806
     1.10000     2.55972    48.72785     3.85781     2.55972    41.27215     3.85781
     1.20000     2.77707    48.72713     3.85758     2.77707    41.27287     3.85758
     1.30000     3.03745    48.72623     3.85728     3.03745    41.27377     3.85728
     1.40000     3.25493    48.72538     3.85701     3.25493    41.27462     3.85701
     1.50000     3.47248    48.72447     3.85673     3.47248    41.27553     3.85673
     1.60000     3.73314    48.72334     3.85636     3.73314    41.27666     3.85636
     1.70000     3.95086    48.72231     3.85603     3.95086    41.27769     3.85603
     1.80000     4.16867    48.72123     3.85568     4.16867    41.27877     3.85568
     1.90000     4.42965    48.71988     3.85524     4.42965    41.28012     3.85524
     2.00000     4.64766    48.71866     3.85486     4.64766    41.28134     3.85486
     2.10000     4.86577    48.71740     3.85445     4.86577    41.28260     3.85445
     2.20000     5.12714    48.71582     3.85394     5.12714    41.28418     3.85394
     2.30000     5.34549    48.71443     3.85349     5.34549    41.28557     3.85349
     2.40000     5.56395    48.71298     3.85303     5.56395    41.28702     3.85303
     2.50000     5.82576    48.71119     3.85245     5.82576    41.28881     3.85245
     2.60000     6.04450    48.70962     3.85194     6.04450    41.29038     3.85194
     2.70000     6.30664    48.70768     3.85131     6.30664    41.29232     3.85131
     2.80000     6.52567    48.70598     3.85076     6.52567    41.29402     3.85076
     2.90000     6.74484    48.70423     3.85020     6.74484    41.29577     3.85020
     3.00000     7.00753    48.70208     3.84950     7.00753    41.29792     3.84950
     3.10000     7.22703    48.70020     3.84889     7.22703    41.29980     3.84889
     3.20000     7.44668    48.69827     3.84827     7.44668    41.30173     3.84827
     3.30000     7.70996    48.69590     3.84749     7.70996    41.30410     3.84749
     3.40000     7.92998    48.69385     3.84683     7.92998    41.30615     3.84683
     3.50000     8.19371    48.69133     3.84601     8.19371    41.30867     3.84601
     3.60000     8.41410    48.68916     3.84531     8.41410    41.31084     3.84531
     3.70000     8.63468    48.68693     3.84458     8.63468    41.31307     3.84458
     3.80000     8.89911    48.68420     3.84369     8.89911    41.31580     3.84369
     3.90000     9.12010    48.68185     3.84293     9.12010    41.31815     3.84293
     4.00000     9.34129    48.67945     3.84215     9.34129    41.32055     3.84215
     4.10000     9.60647    48.67651     3.84118     9.60647    41.32349     3.84118
     4.20000     9.82811    48.67399     3.84036     9.82811    41.32601     3.84036
     4.30000    10.09385    48.67091     3.83935    10.09385    41.32909     3.83935
     4.40000    10.31596    48.66827     3.83849    10.31596    41.33173     3.83849
     4.50000    10.53829    48.66558     3.83761    10.53829    41.33442     3.83761
     4.60000    10.80488    48.66229     3.83653    10.80488    41.33771     3.83653
     4.70000    11.02772    48.65948     3.83561    11.02772    41.34052     3.83561
     4.80000    11.29494    48.65605     3.83448    11.29494    41.34395     3.83448
     4.90000    11.51831    48.65313     3.83352    11.51831    41.34687     3.83352
     5.00000    11.74192    48.65015     3.83254    11.74192    41.34985     3.83254
     5.10000    12.01009    48.64652     3.83134    12.01009    41.35348     3.83134
     5.20000    12.23427    48.64343     3.83033    12.23427    41.35657     3.83033
     5.30000    12.50313    48.63967     3.82908    12.50313    41.36033     3.82908
     5.40000    12.72790    48.63646     3.82802    12.72790    41.36354     3.82802
     5.50000    12.99747    48.63256     3.82673    12.99747    41.36744     3.82673
     5.60000    13.22285    48.62924     3.82563    13.22285    41.37076     3.82563
     5.70000    13.44852    48.62587     3.82452    13.44852    41.37413     3.82452
     5.80000    13.71919    48.62178     3.82315    13.71919    41.37822     3.82315
     5.90000    13.94549    48.61830     3.82200    13.94549    41.38170     3.82200
     6.00000    14.21695    48.61407     3.82059    14.21695    41.38593     3.82059
     6.10000    14.44392    48.61048     3.81939    14.44392    41.38952     3.81939
     6.20000    14.71620    48.60612     3.81793    14.71620    41.39388     3.81793
     6.30000    14.94386    48.60242     3.81670    14.94386    41.39758     3.81670
     6.40000    15.21698    48.59794     3.81520    15.21698    41.40206     3.81520
     6.50000    15.44536    48.59413     3.81392    15.44536    41.40587     3.81392
     6.60000    15.67407    48.59028     3.81263    15.67407    41.40972     3.81263
     6.70000    15.94847    48.58561     3.81106    15.94847    41.41439     3.81106
     6.80000    16.17793    48.58165     3.80973    16.17793    41.41835     3.80973
     6.90000    16.45323    48.57686     3.80811    16.45323    41.42314     3.80811
     7.00000    16.68347    48.57279     3.80674    16.68347    41.42721     3.80674
     7.10000    16.95972    48.56788     3.80508    16.95972    41.43212     3.80508
     7.20000    17.19075    48.56371     3.80367    17.19075    41.43629     3.80367
     7.30000    17.46797    48.55867     3.80196    17.46797    41.44133     3.80196
     7.40000    17.69982    48.55441     3.80051    17.69982    41.44559     3.80051
     7.50000    17.97803    48.54925     3.79875    17.97803    41.45075     3.79875
     7.60000    18.21073    48.54488     3.79727    18.21073    41.45512     3.79727
     7.70000    18.48997    48.53961     3.79546    18.48997    41.46039     3.79546
     7.80000    18.72353    48.53515     3.79394    18.72353    41.46485     3.79394
     7.90000    19.00384    48.52975     3.79209    19.00384    41.47025     3.79209
     8.00000    19.23829    48.52520     3.79053    19.23829    41.47480     3.79053
     8.10000    19.51967    48.51969     3.78864    19.51967    41.48031     3.78864
     8.20000    19.75504    48.51504     3.78704    19.75504    41.48496     3.78704
     8.30000    20.03754    48.50942     3.78510    20.03754    41.49058     3.78510
     8.40000    20.32066    48.50374     3.78313    20.32066    41.49626     3.78313
     8.50000    20.55749    48.49895     3.78148    20.55749    41.50105     3.78148
     8.60000    20.84177    48.49316     3.77947    20.84177    41.50684     3.77947
     8.70000    21.07957    48.48828     3.77778    21.07957    41.51172     3.77778
     8.80000    21.36504    48.48238     3.77573    21.36504    41.51762     3.77573
     8.90000    21.60384    48.47741     3.77400    21.60384    41.52259     3.77400
     9.00000    21.89052    48.47142     3.77190    21.89052    41.52858     3.77190
     9.10000    22.17788    48.46536     3.76978    22.17788    41.53464     3.76978
     9.20000    22.41828    48.46026     3.76800    22.41828    41.53974     3.76800
     9.30000    22.70689    48.45411     3.76583    22.70689    41.54589     3.76583
     9.40000    22.94835    48.44892     3.76401    22.94835    41.55108     3.76401
     9.50000    23.23826    48.44267     3.76180    23.23826    41.55733     3.76180
     9.60000    23.52887    48.43637     3.75957    23.52887    41.56363     3.75957
     9.70000    23.77202    48.43106     3.75770    23.77202    41.56894     3.75770
     9.80000    24.06398    48.42466     3.75542    24.06398    41.57534     3.75542
     9.90000    24.35667    48.41821     3.75312    24.35667    41.58179     3.75312
    10.00000    24.60156    48.41279     3.75120    24.60156    41.58721     3.75120
    10.10000    24.89563    48.40625     3.74886    24.89563    41.59375     3.74886
    10.20000    25.19047    48.39966     3.74650    25.19047    41.60034     3.74650
    10.30000    25.43717    48.39412     3.74452    25.43717    41.60588     3.74452
    10.40000    25.73342    48.38745     3.74211    25.73342    41.61255     3.74211
    10.50000    26.03047    48.38073     3.73969    26.03047    41.61927     3.73969
    10.60000    26.27903    48.37508     3.73766    26.27903    41.62492     3.73766
    10.70000    26.57754    48.36828     3.73519    26.57754    41.63172     3.73519
    10.80000    26.87687    48.36144     3.73271    26.87687    41.63856     3.73271
    10.90000    27.17701    48.35455     3.73020    27.17701    41.64545     3.73020
    11.00000    27.42818    48.34876     3.72810    27.42818    41.65124     3.72810
    11.10000    27.72986    48.34180     3.72555    27.72986    41.65820     3.72555
    11.20000    28.03238    48.33480     3.72298    28.03238    41.66520     3.72298
    11.30000    28.33575    48.32776     3.72040    28.33575    41.67224     3.72040
    11.40000    28.63998    48.32068     3.71779    28.63998    41.67932     3.71779
    11.50000    28.89459    48.31473     3.71560    28.89459    41.68527     3.71560
    11.60000    29.20043    48.30758     3.71296    29.20043    41.69242     3.71296
    11.70000    29.50715    48.30040     3.71029    29.50715    41.69960     3.71029
    11.80000    29.81477    48.29318     3.70760    29.81477    41.70682     3.70760
    11.90000    30.12329    48.28592     3.70490    30.12329    41.71408     3.70490
    12.00000    30.43272    48.27864     3.70217    30.43272    41.72136     3.70217
    12.10000    30.69169    48.27252     3.69990    30.69169    41.72748     3.69990
    12.20000    31.00282    48.26518     3.69714    31.00282    41.73482     3.69714
    12.30000    31.31488    48.25780     3.69436    31.31488    41.74220     3.69436
    12.40000    31.62788    48.25040     3.69156    31.62788    41.74960     3.69156
    12.50000    31.94184    48.24296     3.68874    31.94184    41.75704     3.68874
    12.60000    32.25675    48.23550     3.68591    32.25675    41.76450     3.68591
    12.70000    32.57263    48.22801     3.68306    32.57263    41.77199     3.68306
    12.80000    32.88949    48.22050     3.68019    32.88949    41.77950     3.68019
    12.90000    33.20733    48.21296     3.67731    33.20733    41.78704     3.67731
    13.00000    33.52616    48.20540     3.67441    33.52616    41.79460     3.67441
    13.10000    33.84599    48.19782     3.67149    33.84599    41.80218     3.67149
    13.20000    34.16683    48.19021     3.66855    34.16683    41.80979     3.66855
    13.30000    34.48868    48.18258     3.66560    34.48868    41.81742     3.66560
    13.40000    34.81156    48.17494     3.66263    34.81156    41.82506     3.66263
    13.50000    35.18916    48.16601     3.65914    35.18916    41.83399     3.65914
    13.60000    35.51428    48.15833     3.65614    35.51428    41.84167     3.65614
    13.70000    35.84044    48.15063     3.65313    35.84044    41.84937     3.65313
    13.80000    36.16767    48.14291     3.65010    36.16767    41.85709     3.65010
    13.90000    36.49595    48.13518     3.64706    36.49595    41.86482     3.64706
    14.00000    36.82531    48.12744     3.64400    36.82531    41.87256     3.64400
    14.10000    37.21053    48.11841     3.64041    37.21053    41.88159     3.64041
    14.20000    37.54222    48.11064     3.63732    37.54222    41.88936     3.63732
    14.30000    37.87501    48.10286     3.63423    37.87501    41.89714     3.63423
    14.40000    38.26427    48.09380     3.63059    38.26427    41.90620     3.63059
    14.50000    38.59946    48.08601     3.62747    38.59946    41.91399     3.62747
    14.60000    38.93575    48.07821     3.62433    38.93575    41.92179     3.62433
    14.70000    39.32914    48.06912     3.62065    39.32914    41.93088     3.62065
    14.80000    39.66787    48.06131     3.61749    39.66787    41.93869     3.61749
    14.90000    40.00774    48.05350     3.61432    40.00774    41.94650     3.61432
    15.00000    40.40533    48.04440     3.61061    40.40533    41.95560     3.61061
    15.10000    40.74768    48.03659     3.60742    40.74768    41.96341     3.60742
    15.20000    41.14818    48.02750     3.60368    41.14818    41.97250     3.60368
    15.30000    41.55026    48.01840     3.59992    41.55026    41.98160     3.59992
    15.40000    41.89650    48.01060     3.59671    41.89650    41.98940     3.59671
    15.50000    42.30155    48.00152     3.59294    42.30155    41.99848     3.59294
    15.60000    42.65034    47.99373     3.58971    42.65034    42.00627     3.58971
    15.70000    43.05839    47.98467     3.58592    43.05839    42.01533     3.58592
    15.80000    43.46807    47.97562     3.58212    43.46807    42.02438     3.58212
    15.90000    43.87938    47.96658     3.57832    43.87938    42.03342     3.57832
    16.00000    44.29234    47.95756     3.57451    44.29234    42.04244     3.57451
    16.10000    44.64793    47.94983     3.57125    44.64793    42.05017     3.57125
    16.20000    45.06396    47.94084     3.56743    45.06396    42.05916     3.56743
    16.30000    45.48166    47.93188     3.56361    45.48166    42.06812     3.56361
    16.40000    45.90103    47.92293     3.55978    45.90103    42.07707     3.55978
    16.50000    46.32207    47.91402     3.55596    46.32207    42.08598     3.55596
    16.60000    46.74480    47.90513     3.55213    46.74480    42.09487     3.55213
    16.70000    47.16922    47.89627     3.54830    47.16922    42.10373     3.54830
    16.80000    47.65605    47.88620     3.54391    47.65605    42.11380     3.54391
    16.90000    48.08411    47.87740     3.54009    48.08411    42.12260     3.54009
    17.00000    48.51388    47.86865     3.53626    48.51388    42.13135     3.53626
    17.10000    49.00684    47.85870     3.53188    49.00684    42.14130     3.53188
    17.20000    49.44028    47.85002     3.52807    49.44028    42.14998     3.52807
    17.30000    49.87544    47.84139     3.52426    49.87544    42.15861     3.52426
    17.40000    50.37458    47.83158     3.51990    50.37458    42.16842     3.51990
    17.50000    50.87598    47.82184     3.51555    50.87598    42.17816     3.51555
    17.60000    51.31680    47.81335     3.51177    51.31680    42.18665     3.51177
    17.70000    51.82243    47.80373     3.50744    51.82243    42.19627     3.50744
    17.80000    52.33032    47.79417     3.50313    52.33032    42.20583     3.50313
    17.90000    52.84047    47.78468     3.49883    52.84047    42.21532     3.49883
    18.00000    53.35288    47.77527     3.49456    53.35288    42.22473     3.49456
    18.10000    53.86755    47.76592     3.49030    53.86755    42.23408     3.49030
    18.20000    54.38448    47.75666     3.48606    54.38448    42.24334     3.48606
    18.30000    54.90367    47.74748     3.48184    54.90367    42.25252     3.48184
    18.40000    55.49021    47.73726     3.47712    55.49021    42.26274     3.47712
    18.50000    56.01418    47.72826     3.47295    56.01418    42.27174     3.47295
    18.60000    56.60609    47.71825     3.46829    56.60609    42.28175     3.46829
    18.70000    57.20083    47.70836     3.46367    57.20083    42.29164     3.46367
    18.80000    57.73205    47.69966     3.45960    57.73205    42.30034     3.45960
    18.90000    58.33209    47.69000     3.45505    58.33209    42.31000     3.45505
    19.00000    59.00189    47.67943     3.45004    59.00189    42.32057     3.45004
    19.10000    59.60781    47.67005     3.44558    59.60781    42.32995     3.44558
    19.20000    60.21648    47.66080     3.44118    60.21648    42.33920     3.44118
    19.30000    60.89580    47.65070     3.43634    60.89580    42.34930     3.43634
    19.40000    61.57847    47.64077     3.43156    61.57847    42.35923     3.43156
    19.50000    62.26445    47.63103     3.42686    62.26445    42.36897     3.42686
    19.60000    62.95371    47.62147     3.42222    62.95371    42.37853     3.42222
    19.70000    63.71548    47.61120     3.41721    63.71548    42.38880     3.41721
    19.80000    64.48111    47.60116     3.41229    64.48111    42.39884     3.41229
    19.90000    65.25055    47.59136     3.40748    65.25055    42.40864     3.40748
    20.00000    66.02373    47.58181     3.40277    66.02373    42.41819     3.40277
    20.10000    66.87126    47.57170     3.39776    66.87126    42.42830     3.39776
    20.20000    67.72305    47.56189     3.39288    67.72305    42.43811     3.39288
    20.30000    68.65044    47.55165     3.38775    68.65044    42.44835     3.38775
    20.40000    69.58258    47.54178     3.38280    69.58258    42.45822     3.38280
    20.50000    70.59150    47.53160     3.37766    70.59150    42.46840     3.37766
    20.60000    71.67813    47.52122     3.37239    71.67813    42.47878     3.37239
    20.70000    72.77043    47.51138     3.36738    72.77043    42.48862     3.36738
    20.80000    73.94144    47.50151     3.36234    73.94144    42.49849     3.36234
    20.90000    75.26564    47.49120     3.35703    75.26564    42.50880     3.35703
    21.00000    76.67078    47.48122     3.35189    76.67078    42.51878     3.35189
    21.10000    78.30636    47.47088     3.34652    78.30636    42.52912     3.34652
    21.20000    80.17497    47.46072     3.34122    80.17497    42.53928     3.34122
    21.30000    82.50449    47.45053     3.33589    82.50449    42.54947     3.33589
    21.40000    86.05587    47.44028     3.33050    86.05587    42.55972     3.33050
    21.50000    90.00000    47.43627     3.32850    90.00000    42.56373     3.32850
    21.60000    90.00000    47.43614     3.32862    90.00000    42.56386     3.32862
    21.70000    90.00000    47.43600     3.32873    90.00000    42.56400     3.32873
    21.80000    90.00000    47.43587     3.32885    90.00000    42.56413     3.32885
    21.90000    90.00000    47.43573     3.32896    90.00000    42.56427     3.32896
    22.00000    90.00000    47.43560     3.32908    90.00000    42.56440     3.32908
    22.10000    90.00000    47.43546     3.32919    90.00000    42.56454     3.32919
    22.20000    90.00000    47.43533     3.32931    90.00000    42.56467     3.32931
    22.30000    90.00000    47.43519     3.32943    90.00000    42.56481     3.32943
    22.40000    90.00000    47.43506     3.32954    90.00000    42.56494     3.32954
    22.50000    90.00000    47.43492     3.32966    90.00000    42.56508     3.32966
    22.60000    90.00000    47.43479     3.32977    90.00000    42.56521     3.32977
    22.70000    90.00000    47.43465     3.32989    90.00000    42.56535     3.32989
    22.80000    90.00000    47.43452     3.33001    90.00000    42.56548     3.33001
    22.90000    90.00000    47.43438     3.33012    90.00000    42.56562     3.33012
    23.00000    90.00000    47.43425     3.33024    90.00000    42.56575     3.33024
    23.10000    90.00000    47.43411     3.33035    90.00000    42.56589     3.33035
    23.20000    90.00000    47.43398     3.33047    90.00000    42.56602     3.33047
    23.30000    90.00000    47.43384     3.33058    90.00000    42.56616     3.33058
