 # applied field (T), theta (degree), phi (degree), abs for RE 1-2
     0.00000     1.85802   315.00000     4.02021     1.85802   225.00000     4.02021
     0.10000     2.38126   325.96771     4.02105     1.45174   243.19888     4.01748
     0.20000     2.91358   332.39599     4.02174     1.27982   267.97295     4.01488
     0.30000     3.51755   337.10126     4.02241     1.40282   296.01206     4.01198
     0.40000     4.13776   340.41134     4.02300     1.78119   315.77865     4.00899
     0.50000     4.71928   342.68864     4.02346     2.25057   327.02022     4.00616
     0.60000     5.35519   344.59394     4.02389     2.82179   334.69084     4.00301
     0.70000     5.99551   346.09388     4.02422     3.42726   339.72923     3.99977
     0.80000     6.58964   347.21990     4.02446     4.00391   343.01278     3.99671
     0.90000     7.23532   348.23086     4.02464     4.64041   345.64458     3.99330
     1.00000     7.88287   349.07659     4.02474     5.28554   347.64325     3.98981
     1.10000     8.53197   349.79446     4.02475     5.93702   349.20985     3.98623
     1.20000     9.18238   350.41144     4.02469     6.59347   350.46961     3.98256
     1.30000     9.83395   350.94743     4.02454     7.25402   351.50413     3.97881
     1.40000    10.48660   351.41745     4.02432     7.91813   352.36872     3.97497
     1.50000    11.19036   351.86289     4.02399     8.63664   353.15366     3.97074
     1.60000    11.84510   352.22991     4.02360     9.30711   353.77664     3.96673
     1.70000    12.50084   352.55912     4.02314     9.98038   354.31812     3.96264
     1.80000    13.20789   352.87769     4.02256    10.70822   354.82725     3.95815
     1.90000    13.91613   353.16459     4.02190    11.43912   355.27381     3.95357
     2.00000    14.57510   353.40674     4.02121    12.12078   355.64226     3.94923
     2.10000    15.28573   353.64473     4.02039    12.85755   355.99717     3.94449
     2.20000    15.99767   353.86224     4.01949    13.59739   356.31549     3.93967
     2.30000    16.76175   354.07542     4.01844    14.39326   356.62213     3.93441
     2.40000    17.47655   354.25827     4.01739    15.13954   356.88106     3.92944
     2.50000    18.24381   354.43890     4.01618    15.94242   357.13330     3.92404
     2.60000    18.96171   354.59496     4.01498    16.69534   357.34850     3.91893
     2.70000    19.78364   354.76004     4.01352    17.55939   357.57353     3.91303
     2.80000    20.55634   354.90351     4.01208    18.37363   357.76699     3.90744
     2.90000    21.33096   355.03721     4.01056    19.19180   357.94560     3.90181
     3.00000    22.15923   355.17014     4.00887    20.06871   358.12167     3.89575
     3.10000    22.98983   355.29416     4.00711    20.95025   358.28464     3.88966
     3.20000    23.87478   355.41716     4.00516    21.89186   358.44511     3.88317
     3.30000    24.71040   355.52555     4.00326    22.78322   358.58563     3.87704
     3.40000    25.65311   355.63972     4.00104    23.79140   358.73282     3.87015
     3.50000    26.54661   355.74082     3.99888    24.74950   358.86250     3.86366
     3.60000    27.49572   355.84139     3.99653    25.76990   358.99096     3.85682
     3.70000    28.50106   355.94103     3.99398    26.85373   359.11776     3.84967
     3.80000    29.51023   356.03466     3.99137    27.94472   359.23653     3.84259
     3.90000    30.57654   356.12734     3.98856    29.10071   359.35378     3.83527
     4.00000    31.70069   356.21880     3.98555    30.32291   359.46925     3.82773
     4.10000    32.82965   356.30487     3.98249    31.55383   359.57774     3.82039
     4.20000    34.01742   356.38981     3.97923    32.85250   359.68468     3.81294
     4.30000    35.26474   356.47345     3.97579    34.22005   359.78990     3.80546
     4.40000    36.62687   356.55899     3.97201    35.71756   359.89745     3.79772
     4.50000    38.05060   356.64262     3.96805    37.28694     0.00257     3.79017
     4.60000    39.53673   356.72435     3.96393    38.92905     0.10525     3.78292
     4.70000    41.19682   356.80967     3.95935    40.76732     0.21240     3.77562
     4.80000    42.97779   356.89505     3.95448    42.74299     0.31952     3.76878
     4.90000    44.93745   356.98259     3.94920    44.91957     0.42912     3.76250
     5.00000    47.13506   357.07383     3.94339    47.36158     0.54297     3.75703
     5.10000    49.68831   357.17202     3.93682    50.19700     0.66474     3.75276
     5.20000    52.66102   357.27745     3.92945    53.49096     0.79421     3.75054
     5.30000    56.40826   357.39931     3.92060    57.62390     0.94137     3.75168
     5.40000    61.64939   357.55381     3.90904    63.35292     1.12260     3.75965
     5.50000    71.45868   357.80974     3.88975    73.86371     1.40462     3.78897
     5.60000    88.56855   358.20942     3.86193    91.43145     1.79058     3.86193
     5.70000    88.56864   358.20952     3.86203    91.43136     1.79048     3.86203
     5.80000    88.56873   358.20963     3.86213    91.43127     1.79037     3.86213
     5.90000    88.56882   358.20973     3.86223    91.43118     1.79027     3.86223
     6.00000    88.56891   358.20983     3.86234    91.43109     1.79017     3.86234
     6.10000    88.56900   358.20993     3.86244    91.43100     1.79007     3.86244
     6.20000    88.56909   358.21003     3.86254    91.43091     1.78997     3.86254
     6.30000    88.56918   358.21014     3.86264    91.43082     1.78986     3.86264
     6.40000    88.56927   358.21024     3.86274    91.43073     1.78976     3.86274
     6.50000    88.56936   358.21034     3.86284    91.43064     1.78966     3.86284
     6.60000    88.56945   358.21044     3.86294    91.43055     1.78956     3.86294
     6.70000    88.56954   358.21054     3.86305    91.43046     1.78946     3.86305
     6.80000    88.56963   358.21065     3.86315    91.43037     1.78935     3.86315
     6.90000    88.56972   358.21075     3.86325    91.43028     1.78925     3.86325
     7.00000    88.56981   358.21085     3.86335    91.43019     1.78915     3.86335
     7.10000    88.56990   358.21095     3.86345    91.43010     1.78905     3.86345
     7.20000    88.56999   358.21105     3.86355    91.43001     1.78895     3.86355
     7.30000    88.57008   358.21115     3.86365    91.42992     1.78885     3.86365
     7.40000    88.57016   358.21126     3.86375    91.42984     1.78874     3.86375
     7.50000    88.57025   358.21136     3.86386    91.42975     1.78864     3.86386
     7.60000    88.57034   358.21146     3.86396    91.42966     1.78854     3.86396
     7.70000    88.57043   358.21156     3.86406    91.42957     1.78844     3.86406
     7.80000    88.57052   358.21166     3.86416    91.42948     1.78834     3.86416
     7.90000    88.57061   358.21176     3.86426    91.42939     1.78824     3.86426
     8.00000    88.57070   358.21187     3.86436    91.42930     1.78813     3.86436
     8.10000    88.57079   358.21197     3.86446    91.42921     1.78803     3.86446
     8.20000    88.57088   358.21207     3.86456    91.42912     1.78793     3.86456
     8.30000    88.57097   358.21217     3.86466    91.42903     1.78783     3.86466
     8.40000    88.57106   358.21227     3.86476    91.42894     1.78773     3.86476
     8.50000    88.57115   358.21237     3.86487    91.42885     1.78763     3.86487
     8.60000    88.57124   358.21248     3.86497    91.42876     1.78752     3.86497
     8.70000    88.57133   358.21258     3.86507    91.42867     1.78742     3.86507
     8.80000    88.57142   358.21268     3.86517    91.42858     1.78732     3.86517
     8.90000    88.57151   358.21278     3.86527    91.42849     1.78722     3.86527
     9.00000    88.57160   358.21288     3.86537    91.42840     1.78712     3.86537
     9.10000    88.57169   358.21298     3.86547    91.42831     1.78702     3.86547
     9.20000    88.57178   358.21308     3.86557    91.42822     1.78692     3.86557
     9.30000    88.57187   358.21319     3.86567    91.42813     1.78681     3.86567
     9.40000    88.57195   358.21329     3.86577    91.42805     1.78671     3.86577
     9.50000    88.57204   358.21339     3.86587    91.42796     1.78661     3.86587
     9.60000    88.57213   358.21349     3.86597    91.42787     1.78651     3.86597
     9.70000    88.57222   358.21359     3.86607    91.42778     1.78641     3.86607
     9.80000    88.57231   358.21369     3.86617    91.42769     1.78631     3.86617
     9.90000    88.57240   358.21379     3.86627    91.42760     1.78621     3.86627
    10.00000    88.57249   358.21389     3.86637    91.42751     1.78611     3.86637
    10.10000    88.57258   358.21400     3.86647    91.42742     1.78600     3.86647
    10.20000    88.57267   358.21410     3.86657    91.42733     1.78590     3.86657
    10.30000    88.57276   358.21420     3.86667    91.42724     1.78580     3.86667
    10.40000    88.57285   358.21430     3.86677    91.42715     1.78570     3.86677
    10.50000    88.57294   358.21440     3.86687    91.42706     1.78560     3.86687
    10.60000    88.57303   358.21450     3.86697    91.42697     1.78550     3.86697
    10.70000    88.57311   358.21460     3.86707    91.42689     1.78540     3.86707
    10.80000    88.57320   358.21470     3.86717    91.42680     1.78530     3.86717
    10.90000    88.57329   358.21481     3.86727    91.42671     1.78519     3.86727
    11.00000    88.57338   358.21491     3.86737    91.42662     1.78509     3.86737
    11.10000    88.57347   358.21501     3.86747    91.42653     1.78499     3.86747
    11.20000    88.57356   358.21511     3.86757    91.42644     1.78489     3.86757
    11.30000    88.57365   358.21521     3.86767    91.42635     1.78479     3.86767
    11.40000    88.57374   358.21531     3.86777    91.42626     1.78469     3.86777
    11.50000    88.57383   358.21541     3.86787    91.42617     1.78459     3.86787
    11.60000    88.57392   358.21551     3.86797    91.42608     1.78449     3.86797
    11.70000    88.57400   358.21561     3.86807    91.42600     1.78439     3.86807
    11.80000    88.57409   358.21571     3.86817    91.42591     1.78429     3.86817
    11.90000    88.57418   358.21582     3.86827    91.42582     1.78418     3.86827
    12.00000    88.57427   358.21592     3.86837    91.42573     1.78408     3.86837
    12.10000    88.57436   358.21602     3.86847    91.42564     1.78398     3.86847
    12.20000    88.57445   358.21612     3.86857    91.42555     1.78388     3.86857
    12.30000    88.57454   358.21622     3.86867    91.42546     1.78378     3.86867
    12.40000    88.57463   358.21632     3.86877    91.42537     1.78368     3.86877
    12.50000    88.57471   358.21642     3.86887    91.42529     1.78358     3.86887
    12.60000    88.57480   358.21652     3.86897    91.42520     1.78348     3.86897
    12.70000    88.57489   358.21662     3.86907    91.42511     1.78338     3.86907
    12.80000    88.57498   358.21672     3.86917    91.42502     1.78328     3.86917
    12.90000    88.57507   358.21682     3.86927    91.42493     1.78318     3.86927
    13.00000    88.57516   358.21692     3.86937    91.42484     1.78308     3.86937
    13.10000    88.57525   358.21702     3.86947    91.42475     1.78298     3.86947
    13.20000    88.57534   358.21712     3.86957    91.42466     1.78288     3.86957
    13.30000    88.57542   358.21723     3.86966    91.42458     1.78277     3.86966
    13.40000    88.57551   358.21733     3.86976    91.42449     1.78267     3.86976
    13.50000    88.57560   358.21743     3.86986    91.42440     1.78257     3.86986
    13.60000    88.57569   358.21753     3.86996    91.42431     1.78247     3.86996
    13.70000    88.57578   358.21763     3.87006    91.42422     1.78237     3.87006
    13.80000    88.57587   358.21773     3.87016    91.42413     1.78227     3.87016
    13.90000    88.57595   358.21783     3.87026    91.42405     1.78217     3.87026
    14.00000    88.57604   358.21793     3.87036    91.42396     1.78207     3.87036
    14.10000    88.57613   358.21803     3.87046    91.42387     1.78197     3.87046
    14.20000    88.57622   358.21813     3.87056    91.42378     1.78187     3.87056
    14.30000    88.57631   358.21823     3.87066    91.42369     1.78177     3.87066
    14.40000    88.57640   358.21833     3.87075    91.42360     1.78167     3.87075
    14.50000    88.57649   358.21843     3.87085    91.42351     1.78157     3.87085
    14.60000    88.57657   358.21853     3.87095    91.42343     1.78147     3.87095
    14.70000    88.57666   358.21863     3.87105    91.42334     1.78137     3.87105
    14.80000    88.57675   358.21873     3.87115    91.42325     1.78127     3.87115
    14.90000    88.57684   358.21883     3.87125    91.42316     1.78117     3.87125
    15.00000    88.57693   358.21893     3.87135    91.42307     1.78107     3.87135
    15.10000    88.57701   358.21903     3.87145    91.42299     1.78097     3.87145
    15.20000    88.57710   358.21913     3.87154    91.42290     1.78087     3.87154
    15.30000    88.57719   358.21923     3.87164    91.42281     1.78077     3.87164
    15.40000    88.57728   358.21933     3.87174    91.42272     1.78067     3.87174
    15.50000    88.57737   358.21943     3.87184    91.42263     1.78057     3.87184
    15.60000    88.57746   358.21953     3.87194    91.42254     1.78047     3.87194
    15.70000    88.57754   358.21963     3.87204    91.42246     1.78037     3.87204
    15.80000    88.57763   358.21973     3.87213    91.42237     1.78027     3.87213
    15.90000    88.57772   358.21983     3.87223    91.42228     1.78017     3.87223
    16.00000    88.57781   358.21993     3.87233    91.42219     1.78007     3.87233
    16.10000    88.57790   358.22003     3.87243    91.42210     1.77997     3.87243
    16.20000    88.57798   358.22013     3.87253    91.42202     1.77987     3.87253
    16.30000    88.57807   358.22023     3.87263    91.42193     1.77977     3.87263
    16.40000    88.57816   358.22033     3.87272    91.42184     1.77967     3.87272
    16.50000    88.57825   358.22043     3.87282    91.42175     1.77957     3.87282
    16.60000    88.57834   358.22053     3.87292    91.42166     1.77947     3.87292
    16.70000    88.57842   358.22063     3.87302    91.42158     1.77937     3.87302
    16.80000    88.57851   358.22073     3.87312    91.42149     1.77927     3.87312
    16.90000    88.57860   358.22083     3.87322    91.42140     1.77917     3.87322
    17.00000    88.57869   358.22093     3.87331    91.42131     1.77907     3.87331
    17.10000    88.57878   358.22103     3.87341    91.42122     1.77897     3.87341
    17.20000    88.57886   358.22113     3.87351    91.42114     1.77887     3.87351
    17.30000    88.57895   358.22123     3.87361    91.42105     1.77877     3.87361
    17.40000    88.57904   358.22133     3.87370    91.42096     1.77867     3.87370
    17.50000    88.57913   358.22143     3.87380    91.42087     1.77857     3.87380
    17.60000    88.57922   358.22153     3.87390    91.42078     1.77847     3.87390
    17.70000    88.57930   358.22163     3.87400    91.42070     1.77837     3.87400
    17.80000    88.57939   358.22173     3.87410    91.42061     1.77827     3.87410
    17.90000    88.57948   358.22183     3.87419    91.42052     1.77817     3.87419
    18.00000    88.57957   358.22193     3.87429    91.42043     1.77807     3.87429
    18.10000    88.57965   358.22203     3.87439    91.42035     1.77797     3.87439
    18.20000    88.57974   358.22213     3.87449    91.42026     1.77787     3.87449
    18.30000    88.57983   358.22223     3.87458    91.42017     1.77777     3.87458
    18.40000    88.57992   358.22233     3.87468    91.42008     1.77767     3.87468
    18.50000    88.58000   358.22243     3.87478    91.42000     1.77757     3.87478
    18.60000    88.58009   358.22253     3.87488    91.41991     1.77747     3.87488
    18.70000    88.58018   358.22263     3.87497    91.41982     1.77737     3.87497
    18.80000    88.58027   358.22273     3.87507    91.41973     1.77727     3.87507
    18.90000    88.58035   358.22283     3.87517    91.41965     1.77717     3.87517
    19.00000    88.58044   358.22293     3.87527    91.41956     1.77707     3.87527
    19.10000    88.58053   358.22303     3.87536    91.41947     1.77697     3.87536
    19.20000    88.58062   358.22313     3.87546    91.41938     1.77687     3.87546
    19.30000    88.58070   358.22323     3.87556    91.41930     1.77677     3.87556
    19.40000    88.58079   358.22333     3.87566    91.41921     1.77667     3.87566
    19.50000    88.58088   358.22343     3.87575    91.41912     1.77657     3.87575
    19.60000    88.58097   358.22352     3.87585    91.41903     1.77648     3.87585
    19.70000    88.58105   358.22362     3.87595    91.41895     1.77638     3.87595
    19.80000    88.58114   358.22372     3.87604    91.41886     1.77628     3.87604
    19.90000    88.58123   358.22382     3.87614    91.41877     1.77618     3.87614
    20.00000    88.58132   358.22392     3.87624    91.41868     1.77608     3.87624
    20.10000    88.58140   358.22402     3.87634    91.41860     1.77598     3.87634
    20.20000    88.58149   358.22412     3.87643    91.41851     1.77588     3.87643
    20.30000    88.58158   358.22422     3.87653    91.41842     1.77578     3.87653
    20.40000    88.58167   358.22432     3.87663    91.41833     1.77568     3.87663
    20.50000    88.58175   358.22442     3.87672    91.41825     1.77558     3.87672
    20.60000    88.58184   358.22452     3.87682    91.41816     1.77548     3.87682
    20.70000    88.58193   358.22462     3.87692    91.41807     1.77538     3.87692
    20.80000    88.58201   358.22472     3.87701    91.41799     1.77528     3.87701
    20.90000    88.58210   358.22481     3.87711    91.41790     1.77519     3.87711
    21.00000    88.58219   358.22491     3.87721    91.41781     1.77509     3.87721
    21.10000    88.58228   358.22501     3.87730    91.41772     1.77499     3.87730
    21.20000    88.58236   358.22511     3.87740    91.41764     1.77489     3.87740
    21.30000    88.58245   358.22521     3.87750    91.41755     1.77479     3.87750
    21.40000    88.58254   358.22531     3.87759    91.41746     1.77469     3.87759
    21.50000    88.58262   358.22541     3.87769    91.41738     1.77459     3.87769
    21.60000    88.58271   358.22551     3.87779    91.41729     1.77449     3.87779
    21.70000    88.58280   358.22561     3.87788    91.41720     1.77439     3.87788
    21.80000    88.58289   358.22571     3.87798    91.41711     1.77429     3.87798
    21.90000    88.58297   358.22581     3.87808    91.41703     1.77419     3.87808
    22.00000    88.58306   358.22590     3.87817    91.41694     1.77410     3.87817
    22.10000    88.58315   358.22600     3.87827    91.41685     1.77400     3.87827
    22.20000    88.58323   358.22610     3.87837    91.41677     1.77390     3.87837
    22.30000    88.58332   358.22620     3.87846    91.41668     1.77380     3.87846
    22.40000    88.58341   358.22630     3.87856    91.41659     1.77370     3.87856
    22.50000    88.58349   358.22640     3.87865    91.41651     1.77360     3.87865
    22.60000    88.58358   358.22650     3.87875    91.41642     1.77350     3.87875
    22.70000    88.58367   358.22660     3.87885    91.41633     1.77340     3.87885
    22.80000    88.58375   358.22669     3.87894    91.41625     1.77331     3.87894
    22.90000    88.58384   358.22679     3.87904    91.41616     1.77321     3.87904
    23.00000    88.58393   358.22689     3.87914    91.41607     1.77311     3.87914
    23.10000    88.58402   358.22699     3.87923    91.41598     1.77301     3.87923
    23.20000    88.58410   358.22709     3.87933    91.41590     1.77291     3.87933
    23.30000    88.58419   358.22719     3.87942    91.41581     1.77281     3.87942
