 # applied field (T), theta (degree), phi (degree), abs [muB/unitcell], abs [T]
       0.00000000       0.00000000       0.00000000      35.78196716       1.20436143
       0.10000000       0.39832813     360.00000000      35.78195957       1.20436117
       0.20000000       0.73985839     360.00000000      35.78194135       1.20436056
       0.30000000       1.13818802     360.00000000      35.78190562       1.20435935
       0.40000000       1.53651934     360.00000000      35.78185464       1.20435764
       0.50000000       1.93485294     360.00000000      35.78178843       1.20435541
       0.60000000       2.27638970     360.00000000      35.78172102       1.20435314
       0.70000000       2.67472908     360.00000000      35.78162683       1.20434997
       0.80000000       3.07307242     360.00000000      35.78151749       1.20434629
       0.90000000       3.47142032     360.00000000      35.78139304       1.20434210
       1.00000000       3.86977337     360.00000000      35.78125350       1.20433741
       1.10000000       4.21132889     360.00000000      35.78112460       1.20433307
       1.20000000       4.60969301     360.00000000      35.78095744       1.20432744
       1.30000000       5.00806393     360.00000000      35.78077535       1.20432131
       1.40000000       5.40644227     360.00000000      35.78057839       1.20431468
       1.50000000       5.74802102     360.00000000      35.78040142       1.20430873
       1.60000000       6.14641457     360.00000000      35.78017726       1.20430118
       1.70000000       6.54481718     360.00000000      35.77993844       1.20429314
       1.80000000       6.94322941     360.00000000      35.77968502       1.20428461
       1.90000000       7.28483871     360.00000000      35.77946087       1.20427707
       2.00000000       7.68327026     360.00000000      35.77918083       1.20426764
       2.10000000       8.08171308     360.00000000      35.77888645       1.20425773
       2.20000000       8.48016773     360.00000000      35.77857783       1.20424735
       2.30000000       8.87863477     360.00000000      35.77825507       1.20423648
       2.40000000       9.22029276     360.00000000      35.77797308       1.20422699
       2.50000000       9.61878420     360.00000000      35.77762460       1.20421526
       2.60000000      10.01728963     360.00000000      35.77726231       1.20420307
       2.70000000      10.41580959     360.00000000      35.77688632       1.20419041
       2.80000000      10.81434465     360.00000000      35.77649675       1.20417730
       2.90000000      11.21289534     360.00000000      35.77609374       1.20416374
       3.00000000      11.55462689     360.00000000      35.77574498       1.20415200
       3.10000000      11.95320792     360.00000000      35.77531761       1.20413761
       3.20000000      12.35180613     360.00000000      35.77487718       1.20412279
       3.30000000      12.75042205     360.00000000      35.77442386       1.20410753
       3.40000000      13.14905619     360.00000000      35.77395778       1.20409184
       3.50000000      13.54770910     360.00000000      35.77347911       1.20407573
       3.60000000      13.94638128     360.00000000      35.77298799       1.20405920
       3.70000000      14.34507325     360.00000000      35.77248461       1.20404226
       3.80000000      14.74378552     360.00000000      35.77196912       1.20402491
       3.90000000      15.14251860     360.00000000      35.77144169       1.20400716
       4.00000000      15.48440900     360.00000000      35.77098993       1.20399195
       4.10000000      15.88318186     360.00000000      35.77044105       1.20397348
       4.20000000      16.28197694     360.00000000      35.76988075       1.20395462
       4.30000000      16.68079473     360.00000000      35.76930922       1.20393538
       4.40000000      17.07963570     360.00000000      35.76872664       1.20391577
       4.50000000      17.47850034     360.00000000      35.76813321       1.20389580
       4.60000000      17.87738912     360.00000000      35.76752913       1.20387547
       4.70000000      18.27630250     360.00000000      35.76691461       1.20385478
       4.80000000      18.67524095     360.00000000      35.76628984       1.20383375
       4.90000000      19.07420491     360.00000000      35.76565503       1.20381239
       5.00000000      19.53009540     360.00000000      35.76490543       1.20378716
       5.10000000      19.92911580     360.00000000      35.76424961       1.20376508
       5.20000000      20.32816312     360.00000000      35.76358444       1.20374269
       5.30000000      20.72723781     360.00000000      35.76291013       1.20372000
       5.40000000      21.12634030     360.00000000      35.76222693       1.20369700
       5.50000000      21.52547100     360.00000000      35.76153504       1.20367372
       5.60000000      21.92463034     360.00000000      35.76083471       1.20365014
       5.70000000      22.32381873     360.00000000      35.76012617       1.20362629
       5.80000000      22.77997201     360.00000000      35.75929266       1.20359824
       5.90000000      23.17922431     360.00000000      35.75856709       1.20357382
       6.00000000      23.57850694     360.00000000      35.75783407       1.20354915
       6.10000000      23.97782029     360.00000000      35.75709383       1.20352423
       6.20000000      24.37716476     360.00000000      35.75634662       1.20349908
       6.30000000      24.83350034     360.00000000      35.75546928       1.20346955
       6.40000000      25.23291307     360.00000000      35.75470776       1.20344392
       6.50000000      25.63235811     360.00000000      35.75394005       1.20341808
       6.60000000      26.08881099     360.00000000      35.75303955       1.20338777
       6.70000000      26.48832680     360.00000000      35.75225923       1.20336151
       6.80000000      26.88787605     360.00000000      35.75147354       1.20333506
       6.90000000      27.34445039     360.00000000      35.75055278       1.20330407
       7.00000000      27.74407281     360.00000000      35.74975621       1.20327726
       7.10000000      28.20073236     360.00000000      35.74882324       1.20324586
       7.20000000      28.60042950     360.00000000      35.74801700       1.20321872
       7.30000000      29.05717604     360.00000000      35.74707321       1.20318695
       7.40000000      29.45694942     360.00000000      35.74625850       1.20315953
       7.50000000      29.91378464     360.00000000      35.74530527       1.20312745
       7.60000000      30.31363570     360.00000000      35.74448331       1.20309978
       7.70000000      30.77056125     360.00000000      35.74352204       1.20306743
       7.80000000      31.22753581     360.00000000      35.74255694       1.20303494
       7.90000000      31.62750879     360.00000000      35.74172614       1.20300698
       8.00000000      32.08457604     360.00000000      35.74075514       1.20297430
       8.10000000      32.54169352     360.00000000      35.73978146       1.20294153
       8.20000000      32.94179147     360.00000000      35.73894468       1.20291336
       8.30000000      33.39900383     360.00000000      35.73796724       1.20288046
       8.40000000      33.85626755     360.00000000      35.73698826       1.20284751
       8.50000000      34.31358300     360.00000000      35.73600814       1.20281452
       8.60000000      34.77095054     360.00000000      35.73502725       1.20278151
       8.70000000      35.22837051     360.00000000      35.73404600       1.20274848
       8.80000000      35.68584325     360.00000000      35.73306478       1.20271545
       8.90000000      36.14336907     360.00000000      35.73208396       1.20268244
       9.00000000      36.60094830     360.00000000      35.73110394       1.20264946
       9.10000000      37.05858122     360.00000000      35.73012510       1.20261651
       9.20000000      37.51626812     360.00000000      35.72914781       1.20258361
       9.30000000      37.97400926     360.00000000      35.72817244       1.20255079
       9.40000000      38.43180492     360.00000000      35.72719937       1.20251803
       9.50000000      38.94681729     360.00000000      35.72608827       1.20248064
       9.60000000      39.40473000     360.00000000      35.72512111       1.20244808
       9.70000000      39.86269795     360.00000000      35.72415737       1.20241565
       9.80000000      40.37790637     360.00000000      35.72305754       1.20237863
       9.90000000      40.83599278     360.00000000      35.72210208       1.20234647
      10.00000000      41.35133593     360.00000000      35.72101205       1.20230978
      10.10000000      41.80954160     360.00000000      35.72006639       1.20227795
      10.20000000      42.32502030     360.00000000      35.71898788       1.20224165
      10.30000000      42.78334588     360.00000000      35.71805352       1.20221020
      10.40000000      43.29896081     360.00000000      35.71698817       1.20217434
      10.50000000      43.81464832     360.00000000      35.71593034       1.20213874
      10.60000000      44.33040855     360.00000000      35.71488046       1.20210340
      10.70000000      44.84624159     360.00000000      35.71383894       1.20206834
      10.80000000      45.36214751     360.00000000      35.71280621       1.20203358
      10.90000000      45.87812635     360.00000000      35.71178264       1.20199913
      11.00000000      46.39417813     360.00000000      35.71076862       1.20196500
      11.10000000      46.91030283     360.00000000      35.70976450       1.20193121
      11.20000000      47.48380322     360.00000000      35.70864073       1.20189338
      11.30000000      48.00008225     360.00000000      35.70765854       1.20186032
      11.40000000      48.57375505     360.00000000      35.70655962       1.20182333
      11.50000000      49.09018798     360.00000000      35.70560077       1.20179106
      11.60000000      49.66403257     360.00000000      35.70452824       1.20175496
      11.70000000      50.23796754     360.00000000      35.70347008       1.20171935
      11.80000000      50.81199257     360.00000000      35.70242665       1.20168423
      11.90000000      51.38610734     360.00000000      35.70139827       1.20164961
      12.00000000      51.96031146     360.00000000      35.70038526       1.20161552
      12.10000000      52.53460450     360.00000000      35.69938789       1.20158195
      12.20000000      53.10898596     360.00000000      35.69840644       1.20154891
      12.30000000      53.74086187     360.00000000      35.69732593       1.20151254
      12.40000000      54.37284464     360.00000000      35.69626498       1.20147683
      12.50000000      54.94750643     360.00000000      35.69533569       1.20144556
      12.60000000      55.57969025     360.00000000      35.69431292       1.20141113
      12.70000000      56.21197828     360.00000000      35.69331039       1.20137739
      12.80000000      56.90182658     360.00000000      35.69222171       1.20134074
      12.90000000      57.53432965     360.00000000      35.69126197       1.20130844
      13.00000000      58.22441103     360.00000000      35.69022011       1.20127337
      13.10000000      58.91461196     360.00000000      35.68920286       1.20123913
      13.20000000      59.60493068     360.00000000      35.68821034       1.20120573
      13.30000000      60.29536532     360.00000000      35.68724268       1.20117316
      13.40000000      61.04343358     360.00000000      35.68620516       1.20113824
      13.50000000      61.79163435     360.00000000      35.68519683       1.20110430
      13.60000000      62.53996491     360.00000000      35.68421775       1.20107134
      13.70000000      63.28842241     360.00000000      35.68326802       1.20103938
      13.80000000      64.09456609     360.00000000      35.68226180       1.20100551
      13.90000000      64.90085119     360.00000000      35.68128963       1.20097279
      14.00000000      65.76485779     360.00000000      35.68027063       1.20093849
      14.10000000      66.62901880     360.00000000      35.67929087       1.20090551
      14.20000000      67.55093522     360.00000000      35.67827484       1.20087132
      14.30000000      68.47301690     360.00000000      35.67730382       1.20083863
      14.40000000      69.45288561     360.00000000      35.67630819       1.20080512
      14.50000000      70.49056716     360.00000000      35.67529733       1.20077110
      14.60000000      71.52843564     360.00000000      35.67434484       1.20073904
      14.70000000      72.68180516     360.00000000      35.67333136       1.20070493
      14.80000000      73.89305861     360.00000000      35.67233572       1.20067141
      14.90000000      75.21990155     360.00000000      35.67131915       1.20063720
      15.00000000      76.66238630     360.00000000      35.67030946       1.20060321
      15.10000000      78.27827023     360.00000000      35.66929622       1.20056911
      15.20000000      80.12535108     360.00000000      35.66829657       1.20053546
      15.30000000      82.37692864     360.00000000      35.66730835       1.20050220
      15.40000000      85.72614240     360.00000000      35.66630416       1.20046840
      15.50000000      90.00000000     360.00000000      35.66596674       1.20045705
      15.60000000      90.00000000     360.00000000      35.66619386       1.20046469
      15.70000000      90.00000000     360.00000000      35.66642096       1.20047233
      15.80000000      90.00000000     360.00000000      35.66664804       1.20047998
      15.90000000      90.00000000     360.00000000      35.66687511       1.20048762
      16.00000000      90.00000000     360.00000000      35.66710216       1.20049526
      16.10000000      90.00000000     360.00000000      35.66732920       1.20050290
      16.20000000      90.00000000     360.00000000      35.66755622       1.20051054
      16.30000000      90.00000000     360.00000000      35.66778323       1.20051819
      16.40000000      90.00000000     360.00000000      35.66801022       1.20052583
      16.50000000      90.00000000     360.00000000      35.66823719       1.20053347
      16.60000000      90.00000000     360.00000000      35.66846416       1.20054110
      16.70000000      90.00000000     360.00000000      35.66869110       1.20054874
      16.80000000      90.00000000     360.00000000      35.66891803       1.20055638
      16.90000000      90.00000000     360.00000000      35.66914494       1.20056402
      17.00000000      90.00000000     360.00000000      35.66937184       1.20057166
      17.10000000      90.00000000     360.00000000      35.66959873       1.20057929
      17.20000000      90.00000000     360.00000000      35.66982560       1.20058693
      17.30000000      90.00000000     360.00000000      35.67005245       1.20059456
      17.40000000      90.00000000     360.00000000      35.67027929       1.20060220
      17.50000000      90.00000000     360.00000000      35.67050611       1.20060983
      17.60000000      90.00000000     360.00000000      35.67073292       1.20061747
      17.70000000      90.00000000     360.00000000      35.67095971       1.20062510
      17.80000000      90.00000000     360.00000000      35.67118649       1.20063273
      17.90000000      90.00000000     360.00000000      35.67141325       1.20064037
      18.00000000      90.00000000     360.00000000      35.67164000       1.20064800
      18.10000000      90.00000000     360.00000000      35.67186673       1.20065563
      18.20000000      90.00000000     360.00000000      35.67209345       1.20066326
      18.30000000      90.00000000     360.00000000      35.67232015       1.20067089
      18.40000000      90.00000000     360.00000000      35.67254683       1.20067852
      18.50000000      90.00000000     360.00000000      35.67277350       1.20068615
      18.60000000      90.00000000     360.00000000      35.67300016       1.20069378
      18.70000000      90.00000000     360.00000000      35.67322680       1.20070141
      18.80000000      90.00000000     360.00000000      35.67345343       1.20070903
      18.90000000      90.00000000     360.00000000      35.67368004       1.20071666
      19.00000000      90.00000000     360.00000000      35.67390663       1.20072429
      19.10000000      90.00000000     360.00000000      35.67413321       1.20073192
      19.20000000      90.00000000     360.00000000      35.67435978       1.20073954
      19.30000000      90.00000000     360.00000000      35.67458633       1.20074717
      19.40000000      90.00000000     360.00000000      35.67481287       1.20075479
      19.50000000      90.00000000     360.00000000      35.67503939       1.20076242
      19.60000000      90.00000000     360.00000000      35.67526589       1.20077004
      19.70000000      90.00000000     360.00000000      35.67549238       1.20077766
      19.80000000      90.00000000     360.00000000      35.67571886       1.20078529
      19.90000000      90.00000000     360.00000000      35.67594532       1.20079291
      20.00000000      90.00000000     360.00000000      35.67617176       1.20080053
      20.10000000      90.00000000     360.00000000      35.67639819       1.20080815
      20.20000000      90.00000000     360.00000000      35.67662461       1.20081577
      20.30000000      90.00000000     360.00000000      35.67685101       1.20082339
      20.40000000      90.00000000     360.00000000      35.67707739       1.20083101
      20.50000000      90.00000000     360.00000000      35.67730376       1.20083863
      20.60000000      90.00000000     360.00000000      35.67753012       1.20084625
      20.70000000      90.00000000     360.00000000      35.67775646       1.20085387
      20.80000000      90.00000000     360.00000000      35.67798278       1.20086149
      20.90000000      90.00000000     360.00000000      35.67820909       1.20086910
      21.00000000      90.00000000     360.00000000      35.67843539       1.20087672
      21.10000000      90.00000000     360.00000000      35.67866167       1.20088434
      21.20000000      90.00000000     360.00000000      35.67888794       1.20089195
      21.30000000      90.00000000     360.00000000      35.67911419       1.20089957
      21.40000000      90.00000000     360.00000000      35.67934042       1.20090718
      21.50000000      90.00000000     360.00000000      35.67956664       1.20091480
      21.60000000      90.00000000     360.00000000      35.67979285       1.20092241
      21.70000000      90.00000000     360.00000000      35.68001904       1.20093002
      21.80000000      90.00000000     360.00000000      35.68024521       1.20093763
      21.90000000      90.00000000     360.00000000      35.68047137       1.20094525
      22.00000000      90.00000000     360.00000000      35.68069752       1.20095286
      22.10000000      90.00000000     360.00000000      35.68092365       1.20096047
      22.20000000      90.00000000     360.00000000      35.68114976       1.20096808
      22.30000000      90.00000000     360.00000000      35.68137586       1.20097569
      22.40000000      90.00000000     360.00000000      35.68160195       1.20098330
      22.50000000      90.00000000     360.00000000      35.68182802       1.20099091
      22.60000000      90.00000000     360.00000000      35.68205407       1.20099852
      22.70000000      90.00000000     360.00000000      35.68228011       1.20100613
      22.80000000      90.00000000     360.00000000      35.68250613       1.20101373
      22.90000000      90.00000000     360.00000000      35.68273214       1.20102134
      23.00000000      90.00000000     360.00000000      35.68295813       1.20102895
