 # applied field (T), theta (degree), phi (degree), abs [muB/unitcell], abs [T]
       0.00000000       0.00000000       0.00000000      43.98021443       1.47024981
       0.10000000       0.39895401     360.00000000      43.98021869       1.47024995
       0.20000000       0.79790998     360.00000000      43.98023147       1.47025038
       0.30000000       1.19686985     360.00000000      43.98025276       1.47025109
       0.40000000       1.59583559     360.00000000      43.98028258       1.47025209
       0.50000000       1.99480913     360.00000000      43.98032092       1.47025337
       0.60000000       2.33689981     360.00000000      43.98036130       1.47025472
       0.70000000       2.73589302     360.00000000      43.98041559       1.47025653
       0.80000000       3.13489960     360.00000000      43.98047840       1.47025863
       0.90000000       3.53392151     360.00000000      43.98054974       1.47026102
       1.00000000       3.93296066     360.00000000      43.98062960       1.47026369
       1.10000000       4.33201901     360.00000000      43.98071798       1.47026664
       1.20000000       4.73109848     360.00000000      43.98081489       1.47026988
       1.30000000       5.18711208     360.00000000      43.98093446       1.47027388
       1.40000000       5.58624332     360.00000000      43.98104950       1.47027773
       1.50000000       5.98540170     360.00000000      43.98117306       1.47028186
       1.60000000       6.38458916     360.00000000      43.98130512       1.47028627
       1.70000000       6.84073595     360.00000000      43.98146435       1.47029159
       1.80000000       7.23999210     360.00000000      43.98161450       1.47029661
       1.90000000       7.63928325     360.00000000      43.98177312       1.47030192
       2.00000000       8.09555590     360.00000000      43.98196229       1.47030824
       2.10000000       8.49492839     360.00000000      43.98213890       1.47031414
       2.20000000       8.95129893     360.00000000      43.98234834       1.47032115
       2.30000000       9.40772566     360.00000000      43.98256848       1.47032851
       2.40000000      90.00000000     360.00000000      43.99066196       1.47059907
       2.50000000      90.00000000     360.00000000      43.99070127       1.47060038
       2.60000000      90.00000000     360.00000000      43.99074058       1.47060170
       2.70000000      90.00000000     360.00000000      43.99077989       1.47060301
       2.80000000      90.00000000     360.00000000      43.99081922       1.47060433
       2.90000000      90.00000000     360.00000000      43.99085854       1.47060564
       3.00000000      90.00000000     360.00000000      43.99089787       1.47060696
       3.10000000      90.00000000     360.00000000      43.99093721       1.47060827
       3.20000000      90.00000000     360.00000000      43.99097655       1.47060959
       3.30000000      90.00000000     360.00000000      43.99101589       1.47061090
       3.40000000      90.00000000     360.00000000      43.99105524       1.47061222
       3.50000000      90.00000000     360.00000000      43.99109459       1.47061353
       3.60000000      90.00000000     360.00000000      43.99113395       1.47061485
       3.70000000      90.00000000     360.00000000      43.99117331       1.47061616
       3.80000000      90.00000000     360.00000000      43.99121268       1.47061748
       3.90000000      90.00000000     360.00000000      43.99125205       1.47061880
       4.00000000      90.00000000     360.00000000      43.99129143       1.47062011
       4.10000000      90.00000000     360.00000000      43.99133081       1.47062143
       4.20000000      90.00000000     360.00000000      43.99137019       1.47062275
       4.30000000      90.00000000     360.00000000      43.99140958       1.47062406
       4.40000000      90.00000000     360.00000000      43.99144898       1.47062538
       4.50000000      90.00000000     360.00000000      43.99148837       1.47062670
       4.60000000      90.00000000     360.00000000      43.99152778       1.47062801
       4.70000000      90.00000000     360.00000000      43.99156719       1.47062933
       4.80000000      90.00000000     360.00000000      43.99160660       1.47063065
       4.90000000      90.00000000     360.00000000      43.99164601       1.47063197
       5.00000000      90.00000000     360.00000000      43.99168544       1.47063328
       5.10000000      90.00000000     360.00000000      43.99172486       1.47063460
       5.20000000      90.00000000     360.00000000      43.99176429       1.47063592
       5.30000000      90.00000000     360.00000000      43.99180373       1.47063724
       5.40000000      90.00000000     360.00000000      43.99184317       1.47063856
       5.50000000      90.00000000     360.00000000      43.99188261       1.47063988
       5.60000000      90.00000000     360.00000000      43.99192206       1.47064119
       5.70000000      90.00000000     360.00000000      43.99196151       1.47064251
       5.80000000      90.00000000     360.00000000      43.99200097       1.47064383
       5.90000000      90.00000000     360.00000000      43.99204043       1.47064515
       6.00000000      90.00000000     360.00000000      43.99207990       1.47064647
       6.10000000      90.00000000     360.00000000      43.99211937       1.47064779
       6.20000000      90.00000000     360.00000000      43.99215885       1.47064911
       6.30000000      90.00000000     360.00000000      43.99219833       1.47065043
       6.40000000      90.00000000     360.00000000      43.99223781       1.47065175
       6.50000000      90.00000000     360.00000000      43.99227730       1.47065307
       6.60000000      90.00000000     360.00000000      43.99231680       1.47065439
       6.70000000      90.00000000     360.00000000      43.99235630       1.47065571
       6.80000000      90.00000000     360.00000000      43.99239580       1.47065703
       6.90000000      90.00000000     360.00000000      43.99243531       1.47065835
       7.00000000      90.00000000     360.00000000      43.99247482       1.47065967
       7.10000000      90.00000000     360.00000000      43.99251434       1.47066099
       7.20000000      90.00000000     360.00000000      43.99255386       1.47066232
       7.30000000      90.00000000     360.00000000      43.99259339       1.47066364
       7.40000000      90.00000000     360.00000000      43.99263292       1.47066496
       7.50000000      90.00000000     360.00000000      43.99267246       1.47066628
       7.60000000      90.00000000     360.00000000      43.99271200       1.47066760
       7.70000000      90.00000000     360.00000000      43.99275154       1.47066892
       7.80000000      90.00000000     360.00000000      43.99279109       1.47067025
       7.90000000      90.00000000     360.00000000      43.99283064       1.47067157
       8.00000000      90.00000000     360.00000000      43.99287020       1.47067289
       8.10000000      90.00000000     360.00000000      43.99290977       1.47067421
       8.20000000      90.00000000     360.00000000      43.99294933       1.47067554
       8.30000000      90.00000000     360.00000000      43.99298891       1.47067686
       8.40000000      90.00000000     360.00000000      43.99302848       1.47067818
       8.50000000      90.00000000     360.00000000      43.99306806       1.47067950
       8.60000000      90.00000000     360.00000000      43.99310765       1.47068083
       8.70000000      90.00000000     360.00000000      43.99314724       1.47068215
       8.80000000      90.00000000     360.00000000      43.99318684       1.47068348
       8.90000000      90.00000000     360.00000000      43.99322644       1.47068480
       9.00000000      90.00000000     360.00000000      43.99326604       1.47068612
       9.10000000      90.00000000     360.00000000      43.99330565       1.47068745
       9.20000000      90.00000000     360.00000000      43.99334526       1.47068877
       9.30000000      90.00000000     360.00000000      43.99338488       1.47069010
       9.40000000      90.00000000     360.00000000      43.99342450       1.47069142
       9.50000000      90.00000000     360.00000000      43.99346413       1.47069275
       9.60000000      90.00000000     360.00000000      43.99350376       1.47069407
       9.70000000      90.00000000     360.00000000      43.99354340       1.47069540
       9.80000000      90.00000000     360.00000000      43.99358304       1.47069672
       9.90000000      90.00000000     360.00000000      43.99362269       1.47069805
      10.00000000      90.00000000     360.00000000      43.99366234       1.47069937
      10.10000000      90.00000000     360.00000000      43.99370199       1.47070070
      10.20000000      90.00000000     360.00000000      43.99374165       1.47070202
      10.30000000      90.00000000     360.00000000      43.99378132       1.47070335
      10.40000000      90.00000000     360.00000000      43.99382099       1.47070467
      10.50000000      90.00000000     360.00000000      43.99386066       1.47070600
      10.60000000      90.00000000     360.00000000      43.99390034       1.47070733
      10.70000000      90.00000000     360.00000000      43.99394002       1.47070865
      10.80000000      90.00000000     360.00000000      43.99397971       1.47070998
      10.90000000      90.00000000     360.00000000      43.99401940       1.47071131
      11.00000000      90.00000000     360.00000000      43.99405910       1.47071263
      11.10000000      90.00000000     360.00000000      43.99409880       1.47071396
      11.20000000      90.00000000     360.00000000      43.99413850       1.47071529
      11.30000000      90.00000000     360.00000000      43.99417821       1.47071662
      11.40000000      90.00000000     360.00000000      43.99421793       1.47071794
      11.50000000      90.00000000     360.00000000      43.99425765       1.47071927
      11.60000000      90.00000000     360.00000000      43.99429737       1.47072060
      11.70000000      90.00000000     360.00000000      43.99433710       1.47072193
      11.80000000      90.00000000     360.00000000      43.99437683       1.47072326
      11.90000000      90.00000000     360.00000000      43.99441657       1.47072459
      12.00000000      90.00000000     360.00000000      43.99445632       1.47072591
      12.10000000      90.00000000     360.00000000      43.99449606       1.47072724
      12.20000000      90.00000000     360.00000000      43.99453581       1.47072857
      12.30000000      90.00000000     360.00000000      43.99457557       1.47072990
      12.40000000      90.00000000     360.00000000      43.99461533       1.47073123
      12.50000000      90.00000000     360.00000000      43.99465510       1.47073256
      12.60000000      90.00000000     360.00000000      43.99469487       1.47073389
      12.70000000      90.00000000     360.00000000      43.99473464       1.47073522
      12.80000000      90.00000000     360.00000000      43.99477442       1.47073655
      12.90000000      90.00000000     360.00000000      43.99481421       1.47073788
      13.00000000      90.00000000     360.00000000      43.99485400       1.47073921
      13.10000000      90.00000000     360.00000000      43.99489379       1.47074054
      13.20000000      90.00000000     360.00000000      43.99493359       1.47074187
      13.30000000      90.00000000     360.00000000      43.99497339       1.47074320
      13.40000000      90.00000000     360.00000000      43.99501320       1.47074453
      13.50000000      90.00000000     360.00000000      43.99505301       1.47074586
      13.60000000      90.00000000     360.00000000      43.99509283       1.47074719
      13.70000000      90.00000000     360.00000000      43.99513265       1.47074852
      13.80000000      90.00000000     360.00000000      43.99517247       1.47074985
      13.90000000      90.00000000     360.00000000      43.99521231       1.47075119
      14.00000000      90.00000000     360.00000000      43.99525214       1.47075252
      14.10000000      90.00000000     360.00000000      43.99529198       1.47075385
      14.20000000      90.00000000     360.00000000      43.99533183       1.47075518
      14.30000000      90.00000000     360.00000000      43.99537167       1.47075651
      14.40000000      90.00000000     360.00000000      43.99541153       1.47075785
      14.50000000      90.00000000     360.00000000      43.99545139       1.47075918
      14.60000000      90.00000000     360.00000000      43.99549125       1.47076051
      14.70000000      90.00000000     360.00000000      43.99553112       1.47076184
      14.80000000      90.00000000     360.00000000      43.99557099       1.47076318
      14.90000000      90.00000000     360.00000000      43.99561087       1.47076451
      15.00000000      90.00000000     360.00000000      43.99565075       1.47076584
      15.10000000      90.00000000     360.00000000      43.99569064       1.47076718
      15.20000000      90.00000000     360.00000000      43.99573053       1.47076851
      15.30000000      90.00000000     360.00000000      43.99577042       1.47076984
      15.40000000      90.00000000     360.00000000      43.99581032       1.47077118
      15.50000000      90.00000000     360.00000000      43.99585023       1.47077251
      15.60000000      90.00000000     360.00000000      43.99589014       1.47077385
      15.70000000      90.00000000     360.00000000      43.99593005       1.47077518
      15.80000000      90.00000000     360.00000000      43.99596997       1.47077651
      15.90000000      90.00000000     360.00000000      43.99600989       1.47077785
      16.00000000      90.00000000     360.00000000      43.99604982       1.47077918
      16.10000000      90.00000000     360.00000000      43.99608975       1.47078052
      16.20000000      90.00000000     360.00000000      43.99612969       1.47078185
      16.30000000      90.00000000     360.00000000      43.99616963       1.47078319
      16.40000000      90.00000000     360.00000000      43.99620958       1.47078452
      16.50000000      90.00000000     360.00000000      43.99624953       1.47078586
      16.60000000      90.00000000     360.00000000      43.99628949       1.47078720
      16.70000000      90.00000000     360.00000000      43.99632945       1.47078853
      16.80000000      90.00000000     360.00000000      43.99636942       1.47078987
      16.90000000      90.00000000     360.00000000      43.99640939       1.47079120
      17.00000000      90.00000000     360.00000000      43.99644936       1.47079254
      17.10000000      90.00000000     360.00000000      43.99648934       1.47079388
      17.20000000      90.00000000     360.00000000      43.99652932       1.47079521
      17.30000000      90.00000000     360.00000000      43.99656931       1.47079655
      17.40000000      90.00000000     360.00000000      43.99660931       1.47079789
      17.50000000      90.00000000     360.00000000      43.99664931       1.47079922
      17.60000000      90.00000000     360.00000000      43.99668931       1.47080056
      17.70000000      90.00000000     360.00000000      43.99672932       1.47080190
      17.80000000      90.00000000     360.00000000      43.99676933       1.47080324
      17.90000000      90.00000000     360.00000000      43.99680934       1.47080457
      18.00000000      90.00000000     360.00000000      43.99684937       1.47080591
      18.10000000      90.00000000     360.00000000      43.99688939       1.47080725
      18.20000000      90.00000000     360.00000000      43.99692942       1.47080859
      18.30000000      90.00000000     360.00000000      43.99696946       1.47080993
      18.40000000      90.00000000     360.00000000      43.99700950       1.47081127
      18.50000000      90.00000000     360.00000000      43.99704954       1.47081260
      18.60000000      90.00000000     360.00000000      43.99708959       1.47081394
      18.70000000      90.00000000     360.00000000      43.99712965       1.47081528
      18.80000000      90.00000000     360.00000000      43.99716971       1.47081662
      18.90000000      90.00000000     360.00000000      43.99720977       1.47081796
      19.00000000      90.00000000     360.00000000      43.99724984       1.47081930
      19.10000000      90.00000000     360.00000000      43.99728991       1.47082064
      19.20000000      90.00000000     360.00000000      43.99732999       1.47082198
      19.30000000      90.00000000     360.00000000      43.99737007       1.47082332
      19.40000000      90.00000000     360.00000000      43.99741016       1.47082466
      19.50000000      90.00000000     360.00000000      43.99745025       1.47082600
      19.60000000      90.00000000     360.00000000      43.99749035       1.47082734
      19.70000000      90.00000000     360.00000000      43.99753045       1.47082868
      19.80000000      90.00000000     360.00000000      43.99757055       1.47083002
      19.90000000      90.00000000     360.00000000      43.99761066       1.47083136
      20.00000000      90.00000000     360.00000000      43.99765078       1.47083270
      20.10000000      90.00000000     360.00000000      43.99769090       1.47083405
      20.20000000      90.00000000     360.00000000      43.99773102       1.47083539
      20.30000000      90.00000000     360.00000000      43.99777115       1.47083673
      20.40000000      90.00000000     360.00000000      43.99781129       1.47083807
      20.50000000      90.00000000     360.00000000      43.99785143       1.47083941
      20.60000000      90.00000000     360.00000000      43.99789157       1.47084075
      20.70000000      90.00000000     360.00000000      43.99793172       1.47084210
      20.80000000      90.00000000     360.00000000      43.99797187       1.47084344
      20.90000000      90.00000000     360.00000000      43.99801203       1.47084478
      21.00000000      90.00000000     360.00000000      43.99805219       1.47084612
      21.10000000      90.00000000     360.00000000      43.99809236       1.47084747
      21.20000000      90.00000000     360.00000000      43.99813253       1.47084881
      21.30000000      90.00000000     360.00000000      43.99817271       1.47085015
      21.40000000      90.00000000     360.00000000      43.99821289       1.47085150
      21.50000000      90.00000000     360.00000000      43.99825307       1.47085284
      21.60000000      90.00000000     360.00000000      43.99829326       1.47085418
      21.70000000      90.00000000     360.00000000      43.99833346       1.47085553
      21.80000000      90.00000000     360.00000000      43.99837366       1.47085687
      21.90000000      90.00000000     360.00000000      43.99841386       1.47085821
      22.00000000      90.00000000     360.00000000      43.99845407       1.47085956
      22.10000000      90.00000000     360.00000000      43.99849428       1.47086090
      22.20000000      90.00000000     360.00000000      43.99853450       1.47086225
      22.30000000      90.00000000     360.00000000      43.99857473       1.47086359
      22.40000000      90.00000000     360.00000000      43.99861496       1.47086494
      22.50000000      90.00000000     360.00000000      43.99865519       1.47086628
      22.60000000      90.00000000     360.00000000      43.99869543       1.47086763
      22.70000000      90.00000000     360.00000000      43.99873567       1.47086897
      22.80000000      90.00000000     360.00000000      43.99877591       1.47087032
      22.90000000      90.00000000     360.00000000      43.99881617       1.47087166
      23.00000000      90.00000000     360.00000000      43.99885642       1.47087301
