 # applied field (T), theta (degree), phi (degree), abs for RE 1-2
     0.00000   179.67511   135.00000     3.91388   179.67511    45.00000     3.91388
     0.10000   179.04967   165.06947     3.91391   179.49348   154.90387     3.91425
     0.20000   178.37233   170.80732     3.91389   178.83537   170.11280     3.91456
     0.30000   177.68819   173.16150     3.91382   178.15445   174.24210     3.91482
     0.40000   177.00179   174.43834     3.91368   177.46880   176.14086     3.91501
     0.50000   176.31426   175.23840     3.91349   176.78117   177.22946     3.91514
     0.60000   175.62598   175.78613     3.91325   176.09234   177.93463     3.91520
     0.70000   174.93708   176.18427     3.91295   175.40258   178.42841     3.91520
     0.80000   174.24762   176.48648     3.91259   174.71202   178.79338     3.91512
     0.90000   173.55761   176.72349     3.91218   174.02067   179.07410     3.91498
     1.00000   172.86700   176.91417     3.91172   173.32853   179.29671     3.91477
     1.10000   172.17579   177.07075     3.91120   172.63558   179.47759     3.91449
     1.20000   171.43066   177.21072     3.91059   171.88838   179.63790     3.91410
     1.30000   170.73804   177.32010     3.90997   171.19364   179.76257     3.91367
     1.40000   169.99129   177.42059     3.90925   170.44443   179.87668     3.91312
     1.50000   169.29707   177.50097     3.90853   169.74775   179.96789     3.91253
     1.60000   168.54851   177.57630     3.90770   168.99633   180.05335     3.91181
     1.70000   167.79891   177.64204     3.90682   168.24371   180.12807     3.91101
     1.80000   167.04824   177.69983     3.90589   167.48982   180.19400     3.91011
     1.90000   166.29643   177.75098     3.90491   166.73461   180.25264     3.90913
     2.00000   165.48959   177.79959     3.90381   165.92394   180.30869     3.90799
     2.10000   164.73527   177.84000     3.90274   165.16586   180.35572     3.90682
     2.20000   163.92564   177.87881     3.90153   164.35200   180.40127     3.90548
     2.30000   163.11447   177.91360     3.90029   163.53642   180.44257     3.90404
     2.40000   162.30173   177.94492     3.89899   162.71906   180.48023     3.90250
     2.50000   161.48735   177.97323     3.89766   161.89987   180.51474     3.90085
     2.60000   160.61684   178.00054     3.89619   161.02400   180.54855     3.89899
     2.70000   159.74437   178.02523     3.89468   160.14594   180.57967     3.89702
     2.80000   158.86991   178.04763     3.89313   159.26564   180.60846     3.89495
     2.90000   157.93856   178.06923     3.89145   158.32782   180.63681     3.89262
     3.00000   157.00487   178.08884     3.88973   157.38737   180.66316     3.89018
     3.10000   156.06881   178.10668     3.88798   156.44424   180.68776     3.88763
     3.20000   155.07506   178.12388     3.88609   155.44265   180.71212     3.88481
     3.30000   154.07860   178.13954     3.88418   154.43796   180.73497     3.88186
     3.40000   153.02382   178.15461     3.88215   153.37405   180.75764     3.87864
     3.50000   151.91022   178.16903     3.87998   152.25030   180.78011     3.87512
     3.60000   150.79324   178.18215     3.87780   151.12259   180.80134     3.87147
     3.70000   149.61679   178.19471     3.87551   149.93419   180.82246     3.86753
     3.80000   148.38035   178.20669     3.87310   148.68444   180.84346     3.86328
     3.90000   147.08345   178.21811     3.87060   147.37268   180.86436     3.85873
     4.00000   145.66890   178.22939     3.86789   145.94081   180.88603     3.85368
     4.10000   144.19252   178.24008     3.86512   144.44504   180.90758     3.84835
     4.20000   142.65387   178.25021     3.86228   142.88465   180.92908     3.84276
     4.30000   140.93793   178.26052     3.85919   141.14259   180.95207     3.83653
     4.40000   139.10062   178.27061     3.85600   139.27501   180.97577     3.82994
     4.50000   137.02557   178.28110     3.85255   137.16289   181.00162     3.82268
     4.60000   134.65271   178.29222     3.84882   134.74396   181.03026     3.81474
     4.70000   131.86306   178.30449     3.84474   131.89547   181.06300     3.80610
     4.80000   128.36075   178.31929     3.84012   128.31327   181.10310     3.79661
     4.90000   123.49360   178.33977     3.83459   123.32791   181.15746     3.78656
     5.00000   112.52642   178.39096     3.82547   112.10143   181.27403     3.77924
     5.10000    90.33696   178.53584     3.81475    89.66304   181.46416     3.81475
     5.20000    90.33697   178.53581     3.81475    89.66303   181.46419     3.81475
     5.30000    90.33698   178.53579     3.81475    89.66302   181.46421     3.81475
     5.40000    90.33698   178.53577     3.81475    89.66302   181.46423     3.81475
     5.50000    90.33699   178.53575     3.81475    89.66301   181.46425     3.81475
     5.60000    90.33699   178.53573     3.81475    89.66301   181.46427     3.81475
     5.70000    90.33700   178.53571     3.81475    89.66300   181.46429     3.81475
     5.80000    90.33700   178.53569     3.81475    89.66300   181.46431     3.81475
     5.90000    90.33701   178.53567     3.81475    89.66299   181.46433     3.81475
     6.00000    90.33701   178.53565     3.81475    89.66299   181.46435     3.81475
     6.10000    90.33702   178.53563     3.81475    89.66298   181.46437     3.81475
     6.20000    90.33702   178.53561     3.81475    89.66298   181.46439     3.81475
     6.30000    90.33703   178.53559     3.81475    89.66297   181.46441     3.81475
     6.40000    90.33704   178.53557     3.81475    89.66296   181.46443     3.81475
     6.50000    90.33704   178.53555     3.81475    89.66296   181.46445     3.81475
     6.60000    90.33705   178.53553     3.81474    89.66295   181.46447     3.81474
     6.70000    90.33705   178.53551     3.81474    89.66295   181.46449     3.81474
     6.80000    90.33706   178.53549     3.81474    89.66294   181.46451     3.81474
     6.90000    90.33706   178.53547     3.81474    89.66294   181.46453     3.81474
     7.00000    90.33707   178.53545     3.81474    89.66293   181.46455     3.81474
     7.10000    90.33707   178.53543     3.81474    89.66293   181.46457     3.81474
     7.20000    90.33708   178.53541     3.81474    89.66292   181.46459     3.81474
     7.30000    90.33709   178.53539     3.81474    89.66291   181.46461     3.81474
     7.40000    90.33709   178.53537     3.81474    89.66291   181.46463     3.81474
     7.50000    90.33710   178.53535     3.81474    89.66290   181.46465     3.81474
     7.60000    90.33710   178.53533     3.81474    89.66290   181.46467     3.81474
     7.70000    90.33711   178.53531     3.81474    89.66289   181.46469     3.81474
     7.80000    90.33711   178.53529     3.81474    89.66289   181.46471     3.81474
     7.90000    90.33712   178.53527     3.81474    89.66288   181.46473     3.81474
     8.00000    90.33712   178.53525     3.81474    89.66288   181.46475     3.81474
     8.10000    90.33713   178.53523     3.81473    89.66287   181.46477     3.81473
     8.20000    90.33714   178.53521     3.81473    89.66286   181.46479     3.81473
     8.30000    90.33714   178.53519     3.81473    89.66286   181.46481     3.81473
     8.40000    90.33715   178.53517     3.81473    89.66285   181.46483     3.81473
     8.50000    90.33715   178.53515     3.81473    89.66285   181.46485     3.81473
     8.60000    90.33716   178.53513     3.81473    89.66284   181.46487     3.81473
     8.70000    90.33716   178.53510     3.81473    89.66284   181.46490     3.81473
     8.80000    90.33717   178.53508     3.81473    89.66283   181.46492     3.81473
     8.90000    90.33717   178.53506     3.81473    89.66283   181.46494     3.81473
     9.00000    90.33718   178.53504     3.81473    89.66282   181.46496     3.81473
     9.10000    90.33719   178.53502     3.81472    89.66281   181.46498     3.81472
     9.20000    90.33719   178.53500     3.81472    89.66281   181.46500     3.81472
     9.30000    90.33720   178.53498     3.81472    89.66280   181.46502     3.81472
     9.40000    90.33720   178.53496     3.81472    89.66280   181.46504     3.81472
     9.50000    90.33721   178.53494     3.81472    89.66279   181.46506     3.81472
     9.60000    90.33721   178.53492     3.81472    89.66279   181.46508     3.81472
     9.70000    90.33722   178.53490     3.81472    89.66278   181.46510     3.81472
     9.80000    90.33722   178.53488     3.81472    89.66278   181.46512     3.81472
     9.90000    90.33723   178.53486     3.81472    89.66277   181.46514     3.81472
    10.00000    90.33723   178.53484     3.81471    89.66277   181.46516     3.81471
    10.10000    90.33724   178.53482     3.81471    89.66276   181.46518     3.81471
    10.20000    90.33725   178.53480     3.81471    89.66275   181.46520     3.81471
    10.30000    90.33725   178.53478     3.81471    89.66275   181.46522     3.81471
    10.40000    90.33726   178.53476     3.81471    89.66274   181.46524     3.81471
    10.50000    90.33726   178.53474     3.81471    89.66274   181.46526     3.81471
    10.60000    90.33727   178.53472     3.81471    89.66273   181.46528     3.81471
    10.70000    90.33727   178.53470     3.81471    89.66273   181.46530     3.81471
    10.80000    90.33728   178.53467     3.81470    89.66272   181.46533     3.81470
    10.90000    90.33728   178.53465     3.81470    89.66272   181.46535     3.81470
    11.00000    90.33729   178.53463     3.81470    89.66271   181.46537     3.81470
    11.10000    90.33730   178.53461     3.81470    89.66270   181.46539     3.81470
    11.20000    90.33730   178.53459     3.81470    89.66270   181.46541     3.81470
    11.30000    90.33731   178.53457     3.81470    89.66269   181.46543     3.81470
    11.40000    90.33731   178.53455     3.81470    89.66269   181.46545     3.81470
    11.50000    90.33732   178.53453     3.81469    89.66268   181.46547     3.81469
    11.60000    90.33732   178.53451     3.81469    89.66268   181.46549     3.81469
    11.70000    90.33733   178.53449     3.81469    89.66267   181.46551     3.81469
    11.80000    90.33733   178.53447     3.81469    89.66267   181.46553     3.81469
    11.90000    90.33734   178.53445     3.81469    89.66266   181.46555     3.81469
    12.00000    90.33735   178.53443     3.81469    89.66265   181.46557     3.81469
    12.10000    90.33735   178.53441     3.81468    89.66265   181.46559     3.81468
    12.20000    90.33736   178.53439     3.81468    89.66264   181.46561     3.81468
    12.30000    90.33736   178.53437     3.81468    89.66264   181.46563     3.81468
    12.40000    90.33737   178.53435     3.81468    89.66263   181.46565     3.81468
    12.50000    90.33737   178.53432     3.81468    89.66263   181.46568     3.81468
    12.60000    90.33738   178.53430     3.81468    89.66262   181.46570     3.81468
    12.70000    90.33739   178.53428     3.81467    89.66261   181.46572     3.81467
    12.80000    90.33739   178.53426     3.81467    89.66261   181.46574     3.81467
    12.90000    90.33740   178.53424     3.81467    89.66260   181.46576     3.81467
    13.00000    90.33740   178.53422     3.81467    89.66260   181.46578     3.81467
    13.10000    90.33741   178.53420     3.81467    89.66259   181.46580     3.81467
    13.20000    90.33741   178.53418     3.81466    89.66259   181.46582     3.81466
    13.30000    90.33742   178.53416     3.81466    89.66258   181.46584     3.81466
    13.40000    90.33742   178.53414     3.81466    89.66258   181.46586     3.81466
    13.50000    90.33743   178.53412     3.81466    89.66257   181.46588     3.81466
    13.60000    90.33744   178.53410     3.81466    89.66256   181.46590     3.81466
    13.70000    90.33744   178.53408     3.81466    89.66256   181.46592     3.81466
    13.80000    90.33745   178.53406     3.81465    89.66255   181.46594     3.81465
    13.90000    90.33745   178.53403     3.81465    89.66255   181.46597     3.81465
    14.00000    90.33746   178.53401     3.81465    89.66254   181.46599     3.81465
    14.10000    90.33746   178.53399     3.81465    89.66254   181.46601     3.81465
    14.20000    90.33747   178.53397     3.81465    89.66253   181.46603     3.81465
    14.30000    90.33747   178.53395     3.81464    89.66253   181.46605     3.81464
    14.40000    90.33748   178.53393     3.81464    89.66252   181.46607     3.81464
    14.50000    90.33749   178.53391     3.81464    89.66251   181.46609     3.81464
    14.60000    90.33749   178.53389     3.81464    89.66251   181.46611     3.81464
    14.70000    90.33750   178.53387     3.81463    89.66250   181.46613     3.81463
    14.80000    90.33750   178.53385     3.81463    89.66250   181.46615     3.81463
    14.90000    90.33751   178.53383     3.81463    89.66249   181.46617     3.81463
    15.00000    90.33751   178.53381     3.81463    89.66249   181.46619     3.81463
    15.10000    90.33752   178.53379     3.81463    89.66248   181.46621     3.81463
    15.20000    90.33753   178.53376     3.81462    89.66247   181.46624     3.81462
    15.30000    90.33753   178.53374     3.81462    89.66247   181.46626     3.81462
    15.40000    90.33754   178.53372     3.81462    89.66246   181.46628     3.81462
    15.50000    90.33754   178.53370     3.81462    89.66246   181.46630     3.81462
    15.60000    90.33755   178.53368     3.81461    89.66245   181.46632     3.81461
    15.70000    90.33755   178.53366     3.81461    89.66245   181.46634     3.81461
    15.80000    90.33756   178.53364     3.81461    89.66244   181.46636     3.81461
    15.90000    90.33756   178.53362     3.81461    89.66244   181.46638     3.81461
    16.00000    90.33757   178.53360     3.81460    89.66243   181.46640     3.81460
    16.10000    90.33758   178.53358     3.81460    89.66242   181.46642     3.81460
    16.20000    90.33758   178.53356     3.81460    89.66242   181.46644     3.81460
    16.30000    90.33759   178.53353     3.81460    89.66241   181.46647     3.81460
    16.40000    90.33759   178.53351     3.81459    89.66241   181.46649     3.81459
    16.50000    90.33760   178.53349     3.81459    89.66240   181.46651     3.81459
    16.60000    90.33760   178.53347     3.81459    89.66240   181.46653     3.81459
    16.70000    90.33761   178.53345     3.81459    89.66239   181.46655     3.81459
    16.80000    90.33762   178.53343     3.81458    89.66238   181.46657     3.81458
    16.90000    90.33762   178.53341     3.81458    89.66238   181.46659     3.81458
    17.00000    90.33763   178.53339     3.81458    89.66237   181.46661     3.81458
    17.10000    90.33763   178.53337     3.81458    89.66237   181.46663     3.81458
    17.20000    90.33764   178.53335     3.81457    89.66236   181.46665     3.81457
    17.30000    90.33764   178.53333     3.81457    89.66236   181.46667     3.81457
    17.40000    90.33765   178.53330     3.81457    89.66235   181.46670     3.81457
    17.50000    90.33765   178.53328     3.81457    89.66235   181.46672     3.81457
    17.60000    90.33766   178.53326     3.81456    89.66234   181.46674     3.81456
    17.70000    90.33767   178.53324     3.81456    89.66233   181.46676     3.81456
    17.80000    90.33767   178.53322     3.81456    89.66233   181.46678     3.81456
    17.90000    90.33768   178.53320     3.81456    89.66232   181.46680     3.81456
    18.00000    90.33768   178.53318     3.81455    89.66232   181.46682     3.81455
    18.10000    90.33769   178.53316     3.81455    89.66231   181.46684     3.81455
    18.20000    90.33769   178.53314     3.81455    89.66231   181.46686     3.81455
    18.30000    90.33770   178.53312     3.81454    89.66230   181.46688     3.81454
    18.40000    90.33771   178.53309     3.81454    89.66229   181.46691     3.81454
    18.50000    90.33771   178.53307     3.81454    89.66229   181.46693     3.81454
    18.60000    90.33772   178.53305     3.81454    89.66228   181.46695     3.81454
    18.70000    90.33772   178.53303     3.81453    89.66228   181.46697     3.81453
    18.80000    90.33773   178.53301     3.81453    89.66227   181.46699     3.81453
    18.90000    90.33773   178.53299     3.81453    89.66227   181.46701     3.81453
    19.00000    90.33774   178.53297     3.81452    89.66226   181.46703     3.81452
    19.10000    90.33775   178.53295     3.81452    89.66225   181.46705     3.81452
    19.20000    90.33775   178.53293     3.81452    89.66225   181.46707     3.81452
    19.30000    90.33776   178.53290     3.81451    89.66224   181.46710     3.81451
    19.40000    90.33776   178.53288     3.81451    89.66224   181.46712     3.81451
    19.50000    90.33777   178.53286     3.81451    89.66223   181.46714     3.81451
    19.60000    90.33777   178.53284     3.81450    89.66223   181.46716     3.81450
    19.70000    90.33778   178.53282     3.81450    89.66222   181.46718     3.81450
    19.80000    90.33779   178.53280     3.81450    89.66221   181.46720     3.81450
    19.90000    90.33779   178.53278     3.81450    89.66221   181.46722     3.81450
    20.00000    90.33780   178.53276     3.81449    89.66220   181.46724     3.81449
    20.10000    90.33780   178.53274     3.81449    89.66220   181.46726     3.81449
    20.20000    90.33781   178.53271     3.81449    89.66219   181.46729     3.81449
    20.30000    90.33781   178.53269     3.81448    89.66219   181.46731     3.81448
    20.40000    90.33782   178.53267     3.81448    89.66218   181.46733     3.81448
    20.50000    90.33782   178.53265     3.81448    89.66218   181.46735     3.81448
    20.60000    90.33783   178.53263     3.81447    89.66217   181.46737     3.81447
    20.70000    90.33784   178.53261     3.81447    89.66216   181.46739     3.81447
    20.80000    90.33784   178.53259     3.81447    89.66216   181.46741     3.81447
    20.90000    90.33785   178.53257     3.81446    89.66215   181.46743     3.81446
    21.00000    90.33785   178.53254     3.81446    89.66215   181.46746     3.81446
    21.10000    90.33786   178.53252     3.81446    89.66214   181.46748     3.81446
    21.20000    90.33786   178.53250     3.81445    89.66214   181.46750     3.81445
    21.30000    90.33787   178.53248     3.81445    89.66213   181.46752     3.81445
    21.40000    90.33788   178.53246     3.81445    89.66212   181.46754     3.81445
    21.50000    90.33788   178.53244     3.81444    89.66212   181.46756     3.81444
    21.60000    90.33789   178.53242     3.81444    89.66211   181.46758     3.81444
    21.70000    90.33789   178.53240     3.81443    89.66211   181.46760     3.81443
    21.80000    90.33790   178.53237     3.81443    89.66210   181.46763     3.81443
    21.90000    90.33790   178.53235     3.81443    89.66210   181.46765     3.81443
    22.00000    90.33791   178.53233     3.81442    89.66209   181.46767     3.81442
    22.10000    90.33792   178.53231     3.81442    89.66208   181.46769     3.81442
    22.20000    90.33792   178.53229     3.81442    89.66208   181.46771     3.81442
    22.30000    90.33793   178.53227     3.81441    89.66207   181.46773     3.81441
    22.40000    90.33793   178.53225     3.81441    89.66207   181.46775     3.81441
    22.50000    90.33794   178.53223     3.81441    89.66206   181.46777     3.81441
    22.60000    90.33794   178.53220     3.81440    89.66206   181.46780     3.81440
    22.70000    90.33795   178.53218     3.81440    89.66205   181.46782     3.81440
    22.80000    90.33796   178.53216     3.81439    89.66204   181.46784     3.81439
    22.90000    90.33796   178.53214     3.81439    89.66204   181.46786     3.81439
    23.00000    90.33797   178.53212     3.81439    89.66203   181.46788     3.81439
    23.10000    90.33797   178.53210     3.81438    89.66203   181.46790     3.81438
    23.20000    90.33798   178.53208     3.81438    89.66202   181.46792     3.81438
    23.30000    90.33798   178.53205     3.81438    89.66202   181.46795     3.81438
