 # applied field (T), theta (degree), phi (degree), abs [muB/unitcell], abs [T]
       0.00000000       0.00000000       0.00000000      46.45130438       1.55285786
       0.10000000       0.39872618      45.00000000      46.45130737       1.55285796
       0.20000000       0.79745366      45.00000000      46.45131634       1.55285825
       0.30000000       1.19618372      45.00000000      46.45133128       1.55285875
       0.40000000       1.59491765      45.00000000      46.45135220       1.55285945
       0.50000000       1.99365674      45.00000000      46.45137910       1.55286035
       0.60000000       2.39240229      45.00000000      46.45141199       1.55286145
       0.70000000       2.79115557      45.00000000      46.45145087       1.55286275
       0.80000000       3.18991787      45.00000000      46.45149574       1.55286425
       0.90000000       3.58869047      45.00000000      46.45154661       1.55286595
       1.00000000       3.98747464      45.00000000      46.45160349       1.55286785
       1.10000000       4.38627166      45.00000000      46.45166639       1.55286996
       1.20000000       4.78508279      45.00000000      46.45173530       1.55287226
       1.30000000       5.18390930      45.00000000      46.45181023       1.55287477
       1.40000000       5.58275244      45.00000000      46.45189120       1.55287747
       1.50000000       5.98161347      45.00000000      46.45197821       1.55288038
       1.60000000       6.38049362      45.00000000      46.45207127       1.55288349
       1.70000000       6.77939414      45.00000000      46.45217038       1.55288681
       1.80000000       7.17831625      45.00000000      46.45227556       1.55289032
       1.90000000       7.63415610      45.00000000      46.45240068       1.55289450
       2.00000000       8.03312863      45.00000000      46.45251873       1.55289845
       2.10000000       8.43212657      45.00000000      46.45264287       1.55290260
       2.20000000       8.83115111      45.00000000      46.45277309       1.55290695
       2.30000000       9.28711427      45.00000000      46.45292634       1.55291208
       2.40000000       9.68619983      45.00000000      46.45306948       1.55291686
       2.50000000      10.14223588      45.00000000      46.45323725       1.55292247
       2.60000000      10.54138778      45.00000000      46.45339331       1.55292769
       2.70000000      10.99750275      45.00000000      46.45357559       1.55293378
       2.80000000      11.45366226      45.00000000      46.45376554       1.55294013
       2.90000000      11.85292594      45.00000000      46.45394134       1.55294601
       3.00000000      12.30917330      45.00000000      46.45414577       1.55295284
       3.10000000      12.76546986      45.00000000      46.45435783       1.55295993
       3.20000000      13.22181719      45.00000000      46.45457751       1.55296728
       3.30000000      13.67821681      45.00000000      46.45480478       1.55297487
       3.40000000      14.13467025      45.00000000      46.45503962       1.55298272
       3.50000000      14.59117896      45.00000000      46.45528199       1.55299083
       3.60000000      15.10473337      45.00000000      46.45555952       1.55300010
       3.70000000      15.56136436      45.00000000      46.45581763       1.55300873
       3.80000000      16.07506004      45.00000000      46.45611254       1.55301859
       3.90000000      16.53181943      45.00000000      46.45638617       1.55302774
       4.00000000      17.04566307      45.00000000      46.45669815       1.55303817
       4.10000000      17.55958764      45.00000000      46.45701898       1.55304889
       4.20000000      18.07359483      45.00000000      46.45734853       1.55305991
       4.30000000      18.58768625      45.00000000      46.45768668       1.55307121
       4.40000000      19.15892419      45.00000000      46.45806796       1.55308396
       4.50000000      19.73027025      45.00000000      46.45845927       1.55309704
       4.60000000      20.24464327      45.00000000      46.45882392       1.55310923
       4.70000000      20.87329402      45.00000000      46.45927108       1.55312418
       4.80000000      21.44497505      45.00000000      46.45969105       1.55313822
       4.90000000      22.07388962      45.00000000      46.46015909       1.55315387
       5.00000000      22.70294507      45.00000000      46.46063744       1.55316986
       5.10000000      23.33214292      45.00000000      46.46112567       1.55318618
       5.20000000      24.01864397      45.00000000      46.46166485       1.55320420
       5.30000000      24.70531774      45.00000000      46.46221443       1.55322258
       5.40000000      25.44935535      45.00000000      46.46281683       1.55324271
       5.50000000      26.25080547      45.00000000      46.46347345       1.55326466
       5.60000000      27.05249447      45.00000000      46.46414071       1.55328697
       5.70000000      90.00000000      45.00000000      46.47905315       1.55378549
       5.80000000      90.00000000      45.00000000      46.47909663       1.55378694
       5.90000000      90.00000000      45.00000000      46.47914012       1.55378840
       6.00000000      90.00000000      45.00000000      46.47918361       1.55378985
       6.10000000      90.00000000      45.00000000      46.47922711       1.55379131
       6.20000000      90.00000000      45.00000000      46.47927061       1.55379276
       6.30000000      90.00000000      45.00000000      46.47931412       1.55379422
       6.40000000      90.00000000      45.00000000      46.47935763       1.55379567
       6.50000000      90.00000000      45.00000000      46.47940115       1.55379712
       6.60000000      90.00000000      45.00000000      46.47944467       1.55379858
       6.70000000      90.00000000      45.00000000      46.47948820       1.55380003
       6.80000000      90.00000000      45.00000000      46.47953174       1.55380149
       6.90000000      90.00000000      45.00000000      46.47957527       1.55380295
       7.00000000      90.00000000      45.00000000      46.47961882       1.55380440
       7.10000000      90.00000000      45.00000000      46.47966237       1.55380586
       7.20000000      90.00000000      45.00000000      46.47970592       1.55380731
       7.30000000      90.00000000      45.00000000      46.47974948       1.55380877
       7.40000000      90.00000000      45.00000000      46.47979305       1.55381023
       7.50000000      90.00000000      45.00000000      46.47983662       1.55381168
       7.60000000      90.00000000      45.00000000      46.47988020       1.55381314
       7.70000000      90.00000000      45.00000000      46.47992378       1.55381460
       7.80000000      90.00000000      45.00000000      46.47996736       1.55381605
       7.90000000      90.00000000      45.00000000      46.48001095       1.55381751
       8.00000000      90.00000000      45.00000000      46.48005455       1.55381897
       8.10000000      90.00000000      45.00000000      46.48009815       1.55382043
       8.20000000      90.00000000      45.00000000      46.48014176       1.55382188
       8.30000000      90.00000000      45.00000000      46.48018537       1.55382334
       8.40000000      90.00000000      45.00000000      46.48022899       1.55382480
       8.50000000      90.00000000      45.00000000      46.48027261       1.55382626
       8.60000000      90.00000000      45.00000000      46.48031624       1.55382772
       8.70000000      90.00000000      45.00000000      46.48035987       1.55382917
       8.80000000      90.00000000      45.00000000      46.48040351       1.55383063
       8.90000000      90.00000000      45.00000000      46.48044715       1.55383209
       9.00000000      90.00000000      45.00000000      46.48049080       1.55383355
       9.10000000      90.00000000      45.00000000      46.48053446       1.55383501
       9.20000000      90.00000000      45.00000000      46.48057811       1.55383647
       9.30000000      90.00000000      45.00000000      46.48062178       1.55383793
       9.40000000      90.00000000      45.00000000      46.48066545       1.55383939
       9.50000000      90.00000000      45.00000000      46.48070912       1.55384085
       9.60000000      90.00000000      45.00000000      46.48075280       1.55384231
       9.70000000      90.00000000      45.00000000      46.48079649       1.55384377
       9.80000000      90.00000000      45.00000000      46.48084018       1.55384523
       9.90000000      90.00000000      45.00000000      46.48088388       1.55384669
      10.00000000      90.00000000      45.00000000      46.48092758       1.55384815
      10.10000000      90.00000000      45.00000000      46.48097128       1.55384961
      10.20000000      90.00000000      45.00000000      46.48101499       1.55385108
      10.30000000      90.00000000      45.00000000      46.48105871       1.55385254
      10.40000000      90.00000000      45.00000000      46.48110243       1.55385400
      10.50000000      90.00000000      45.00000000      46.48114616       1.55385546
      10.60000000      90.00000000      45.00000000      46.48118989       1.55385692
      10.70000000      90.00000000      45.00000000      46.48123363       1.55385838
      10.80000000      90.00000000      45.00000000      46.48127737       1.55385985
      10.90000000      90.00000000      45.00000000      46.48132112       1.55386131
      11.00000000      90.00000000      45.00000000      46.48136487       1.55386277
      11.10000000      90.00000000      45.00000000      46.48140863       1.55386423
      11.20000000      90.00000000      45.00000000      46.48145240       1.55386570
      11.30000000      90.00000000      45.00000000      46.48149616       1.55386716
      11.40000000      90.00000000      45.00000000      46.48153994       1.55386862
      11.50000000      90.00000000      45.00000000      46.48158372       1.55387009
      11.60000000      90.00000000      45.00000000      46.48162750       1.55387155
      11.70000000      90.00000000      45.00000000      46.48167129       1.55387302
      11.80000000      90.00000000      45.00000000      46.48171509       1.55387448
      11.90000000      90.00000000      45.00000000      46.48175889       1.55387594
      12.00000000      90.00000000      45.00000000      46.48180269       1.55387741
      12.10000000      90.00000000      45.00000000      46.48184650       1.55387887
      12.20000000      90.00000000      45.00000000      46.48189032       1.55388034
      12.30000000      90.00000000      45.00000000      46.48193414       1.55388180
      12.40000000      90.00000000      45.00000000      46.48197797       1.55388327
      12.50000000      90.00000000      45.00000000      46.48202180       1.55388473
      12.60000000      90.00000000      45.00000000      46.48206564       1.55388620
      12.70000000      90.00000000      45.00000000      46.48210948       1.55388766
      12.80000000      90.00000000      45.00000000      46.48215333       1.55388913
      12.90000000      90.00000000      45.00000000      46.48219718       1.55389060
      13.00000000      90.00000000      45.00000000      46.48224104       1.55389206
      13.10000000      90.00000000      45.00000000      46.48228490       1.55389353
      13.20000000      90.00000000      45.00000000      46.48232877       1.55389499
      13.30000000      90.00000000      45.00000000      46.48237265       1.55389646
      13.40000000      90.00000000      45.00000000      46.48241653       1.55389793
      13.50000000      90.00000000      45.00000000      46.48246041       1.55389940
      13.60000000      90.00000000      45.00000000      46.48250430       1.55390086
      13.70000000      90.00000000      45.00000000      46.48254819       1.55390233
      13.80000000      90.00000000      45.00000000      46.48259209       1.55390380
      13.90000000      90.00000000      45.00000000      46.48263600       1.55390527
      14.00000000      90.00000000      45.00000000      46.48267991       1.55390673
      14.10000000      90.00000000      45.00000000      46.48272383       1.55390820
      14.20000000      90.00000000      45.00000000      46.48276775       1.55390967
      14.30000000      90.00000000      45.00000000      46.48281168       1.55391114
      14.40000000      90.00000000      45.00000000      46.48285561       1.55391261
      14.50000000      90.00000000      45.00000000      46.48289955       1.55391408
      14.60000000      90.00000000      45.00000000      46.48294349       1.55391554
      14.70000000      90.00000000      45.00000000      46.48298744       1.55391701
      14.80000000      90.00000000      45.00000000      46.48303139       1.55391848
      14.90000000      90.00000000      45.00000000      46.48307535       1.55391995
      15.00000000      90.00000000      45.00000000      46.48311931       1.55392142
      15.10000000      90.00000000      45.00000000      46.48316328       1.55392289
      15.20000000      90.00000000      45.00000000      46.48320725       1.55392436
      15.30000000      90.00000000      45.00000000      46.48325123       1.55392583
      15.40000000      90.00000000      45.00000000      46.48329522       1.55392730
      15.50000000      90.00000000      45.00000000      46.48333921       1.55392877
      15.60000000      90.00000000      45.00000000      46.48338320       1.55393024
      15.70000000      90.00000000      45.00000000      46.48342720       1.55393171
      15.80000000      90.00000000      45.00000000      46.48347121       1.55393319
      15.90000000      90.00000000      45.00000000      46.48351522       1.55393466
      16.00000000      90.00000000      45.00000000      46.48355924       1.55393613
      16.10000000      90.00000000      45.00000000      46.48360326       1.55393760
      16.20000000      90.00000000      45.00000000      46.48364729       1.55393907
      16.30000000      90.00000000      45.00000000      46.48369132       1.55394054
      16.40000000      90.00000000      45.00000000      46.48373536       1.55394202
      16.50000000      90.00000000      45.00000000      46.48377940       1.55394349
      16.60000000      90.00000000      45.00000000      46.48382345       1.55394496
      16.70000000      90.00000000      45.00000000      46.48386750       1.55394643
      16.80000000      90.00000000      45.00000000      46.48391156       1.55394791
      16.90000000      90.00000000      45.00000000      46.48395562       1.55394938
      17.00000000      90.00000000      45.00000000      46.48399969       1.55395085
      17.10000000      90.00000000      45.00000000      46.48404377       1.55395233
      17.20000000      90.00000000      45.00000000      46.48408785       1.55395380
      17.30000000      90.00000000      45.00000000      46.48413193       1.55395527
      17.40000000      90.00000000      45.00000000      46.48417602       1.55395675
      17.50000000      90.00000000      45.00000000      46.48422012       1.55395822
      17.60000000      90.00000000      45.00000000      46.48426422       1.55395970
      17.70000000      90.00000000      45.00000000      46.48430833       1.55396117
      17.80000000      90.00000000      45.00000000      46.48435244       1.55396265
      17.90000000      90.00000000      45.00000000      46.48439656       1.55396412
      18.00000000      90.00000000      45.00000000      46.48444068       1.55396560
      18.10000000      90.00000000      45.00000000      46.48448481       1.55396707
      18.20000000      90.00000000      45.00000000      46.48452894       1.55396855
      18.30000000      90.00000000      45.00000000      46.48457308       1.55397002
      18.40000000      90.00000000      45.00000000      46.48461722       1.55397150
      18.50000000      90.00000000      45.00000000      46.48466137       1.55397297
      18.60000000      90.00000000      45.00000000      46.48470553       1.55397445
      18.70000000      90.00000000      45.00000000      46.48474969       1.55397593
      18.80000000      90.00000000      45.00000000      46.48479385       1.55397740
      18.90000000      90.00000000      45.00000000      46.48483802       1.55397888
      19.00000000      90.00000000      45.00000000      46.48488220       1.55398035
      19.10000000      90.00000000      45.00000000      46.48492638       1.55398183
      19.20000000      90.00000000      45.00000000      46.48497056       1.55398331
      19.30000000      90.00000000      45.00000000      46.48501475       1.55398479
      19.40000000      90.00000000      45.00000000      46.48505895       1.55398626
      19.50000000      90.00000000      45.00000000      46.48510315       1.55398774
      19.60000000      90.00000000      45.00000000      46.48514736       1.55398922
      19.70000000      90.00000000      45.00000000      46.48519157       1.55399070
      19.80000000      90.00000000      45.00000000      46.48523579       1.55399218
      19.90000000      90.00000000      45.00000000      46.48528002       1.55399365
      20.00000000      90.00000000      45.00000000      46.48532425       1.55399513
      20.10000000      90.00000000      45.00000000      46.48536848       1.55399661
      20.20000000      90.00000000      45.00000000      46.48541272       1.55399809
      20.30000000      90.00000000      45.00000000      46.48545696       1.55399957
      20.40000000      90.00000000      45.00000000      46.48550121       1.55400105
      20.50000000      90.00000000      45.00000000      46.48554547       1.55400253
      20.60000000      90.00000000      45.00000000      46.48558973       1.55400401
      20.70000000      90.00000000      45.00000000      46.48563400       1.55400549
      20.80000000      90.00000000      45.00000000      46.48567827       1.55400697
      20.90000000      90.00000000      45.00000000      46.48572255       1.55400845
      21.00000000      90.00000000      45.00000000      46.48576683       1.55400993
      21.10000000      90.00000000      45.00000000      46.48581111       1.55401141
      21.20000000      90.00000000      45.00000000      46.48585541       1.55401289
      21.30000000      90.00000000      45.00000000      46.48589971       1.55401437
      21.40000000      90.00000000      45.00000000      46.48594401       1.55401585
      21.50000000      90.00000000      45.00000000      46.48598832       1.55401733
      21.60000000      90.00000000      45.00000000      46.48603263       1.55401881
      21.70000000      90.00000000      45.00000000      46.48607695       1.55402030
      21.80000000      90.00000000      45.00000000      46.48612128       1.55402178
      21.90000000      90.00000000      45.00000000      46.48616561       1.55402326
      22.00000000      90.00000000      45.00000000      46.48620994       1.55402474
      22.10000000      90.00000000      45.00000000      46.48625428       1.55402622
      22.20000000      90.00000000      45.00000000      46.48629863       1.55402771
      22.30000000      90.00000000      45.00000000      46.48634298       1.55402919
      22.40000000      90.00000000      45.00000000      46.48638734       1.55403067
      22.50000000      90.00000000      45.00000000      46.48643170       1.55403215
      22.60000000      90.00000000      45.00000000      46.48647607       1.55403364
      22.70000000      90.00000000      45.00000000      46.48652044       1.55403512
      22.80000000      90.00000000      45.00000000      46.48656482       1.55403660
      22.90000000      90.00000000      45.00000000      46.48660921       1.55403809
      23.00000000      90.00000000      45.00000000      46.48665359       1.55403957
