 # applied field (T), theta (degree), phi (degree), abs for RE 3-4
     0.00000   180.00000   180.00000     3.71270   180.00000   360.00000     3.71270
     0.10000   179.19825   180.00000     3.71272   179.30052   180.00000     3.71265
     0.20000   178.33919   180.00000     3.71277   178.55092   180.00000     3.71250
     0.30000   177.53740   180.00000     3.71285   177.85119   180.00000     3.71226
     0.40000   176.73557   180.00000     3.71296   177.15122   180.00000     3.71193
     0.50000   175.87638   180.00000     3.71313   176.40083   180.00000     3.71147
     0.60000   175.07442   180.00000     3.71332   175.70010   180.00000     3.71094
     0.70000   174.21505   180.00000     3.71357   174.94873   180.00000     3.71028
     0.80000   173.41288   180.00000     3.71385   174.24692   180.00000     3.70956
     0.90000   172.55323   180.00000     3.71421   173.49421   180.00000     3.70869
     1.00000   171.75075   180.00000     3.71460   172.79099   180.00000     3.70779
     1.10000   170.89070   180.00000     3.71508   172.03659   180.00000     3.70672
     1.20000   170.03039   180.00000     3.71563   171.28117   180.00000     3.70555
     1.30000   169.16978   180.00000     3.71627   170.52466   180.00000     3.70428
     1.40000   168.30882   180.00000     3.71700   169.76694   180.00000     3.70290
     1.50000   167.44747   180.00000     3.71783   169.00794   180.00000     3.70143
     1.60000   166.58568   180.00000     3.71876   168.24756   180.00000     3.69986
     1.70000   165.66587   180.00000     3.71989   167.43482   180.00000     3.69808
     1.80000   164.80302   180.00000     3.72108   166.67132   180.00000     3.69631
     1.90000   163.88199   180.00000     3.72250   165.85506   180.00000     3.69432
     2.00000   162.96024   180.00000     3.72409   165.03682   180.00000     3.69223
     2.10000   162.03774   180.00000     3.72587   164.21650   180.00000     3.69003
     2.20000   161.11445   180.00000     3.72785   163.39402   180.00000     3.68773
     2.30000   160.13252   180.00000     3.73018   162.51758   180.00000     3.68518
     2.40000   159.20748   180.00000     3.73262   161.69031   180.00000     3.68268
     2.50000   158.22366   180.00000     3.73547   160.80858   180.00000     3.67993
     2.60000   157.18086   180.00000     3.73881   159.87179   180.00000     3.67690
     2.70000   156.19500   180.00000     3.74229   158.98400   180.00000     3.67393
     2.80000   155.15008   180.00000     3.74634   158.04056   180.00000     3.67068
     2.90000   154.04596   180.00000     3.75103   157.04076   180.00000     3.66715
     3.00000   152.99898   180.00000     3.75590   156.08980   180.00000     3.66369
     3.10000   151.89285   180.00000     3.76151   155.08183   180.00000     3.65995
     3.20000   150.72753   180.00000     3.76796   154.01603   180.00000     3.65589
     3.30000   149.56142   180.00000     3.77498   152.94525   180.00000     3.65173
     3.40000   148.33631   180.00000     3.78299   151.81539   180.00000     3.64726
     3.50000   147.11076   180.00000     3.79169   150.67977   180.00000     3.64269
     3.60000   145.82664   180.00000     3.80154   149.48370   180.00000     3.63780
     3.70000   144.48427   180.00000     3.81266   148.22618   180.00000     3.63258
     3.80000   143.14239   180.00000     3.82464   146.96130   180.00000     3.62728
     3.90000   141.68479   180.00000     3.83862   145.57789   180.00000     3.62143
     4.00000   140.17047   180.00000     3.85421   144.12961   180.00000     3.61526
     4.10000   138.65825   180.00000     3.87085   142.67151   180.00000     3.60903
     4.20000   136.97450   180.00000     3.89059   141.03340   180.00000     3.60202
     4.30000   135.23653   180.00000     3.91224   139.32570   180.00000     3.59472
     4.40000   133.38743   180.00000     3.93658   137.48939   180.00000     3.58693
     4.50000   131.42844   180.00000     3.96367   135.52164   180.00000     3.57866
     4.60000   129.24597   180.00000     3.99518   133.30213   180.00000     3.56950
     4.70000   126.89923   180.00000     4.03022   130.88371   180.00000     3.55976
     4.80000   124.27530   180.00000     4.07023   128.14167   180.00000     3.54908
     4.90000   121.31872   180.00000     4.11547   125.00657   180.00000     3.53747
     5.00000   117.80345   180.00000     4.16805   121.22180   180.00000     3.52440
     5.10000   113.50303   180.00000     4.22823   116.51822   180.00000     3.50983
     5.20000   107.56583   180.00000     4.29934   109.91829   180.00000     3.49292
     5.30000    95.55953   180.00000     4.38489    96.33723   180.00000     3.47265
     5.40000    90.00000   180.00000     4.39455    90.00000   180.00000     3.47032
     5.50000    90.00000   180.00000     4.39445    90.00000   180.00000     3.47031
     5.60000    90.00000   180.00000     4.39434    90.00000   180.00000     3.47030
     5.70000    90.00000   180.00000     4.39424    90.00000   180.00000     3.47029
     5.80000    90.00000   180.00000     4.39414    90.00000   180.00000     3.47028
     5.90000    90.00000   180.00000     4.39404    90.00000   180.00000     3.47027
     6.00000    90.00000   180.00000     4.39394    90.00000   180.00000     3.47026
     6.10000    90.00000   180.00000     4.39384    90.00000   180.00000     3.47026
     6.20000    90.00000   180.00000     4.39374    90.00000   180.00000     3.47025
     6.30000    90.00000   180.00000     4.39364    90.00000   180.00000     3.47024
     6.40000    90.00000   180.00000     4.39354    90.00000   180.00000     3.47023
     6.50000    90.00000   180.00000     4.39344    90.00000   180.00000     3.47022
     6.60000    90.00000   180.00000     4.39334    90.00000   180.00000     3.47021
     6.70000    90.00000   180.00000     4.39324    90.00000   180.00000     3.47020
     6.80000    90.00000   180.00000     4.39314    90.00000   180.00000     3.47019
     6.90000    90.00000   180.00000     4.39304    90.00000   180.00000     3.47018
     7.00000    90.00000   180.00000     4.39294    90.00000   180.00000     3.47017
     7.10000    90.00000   180.00000     4.39284    90.00000   180.00000     3.47016
     7.20000    90.00000   180.00000     4.39274    90.00000   180.00000     3.47015
     7.30000    90.00000   180.00000     4.39264    90.00000   180.00000     3.47014
     7.40000    90.00000   180.00000     4.39254    90.00000   180.00000     3.47013
     7.50000    90.00000   180.00000     4.39244    90.00000   180.00000     3.47013
     7.60000    90.00000   180.00000     4.39234    90.00000   180.00000     3.47012
     7.70000    90.00000   180.00000     4.39224    90.00000   180.00000     3.47011
     7.80000    90.00000   180.00000     4.39214    90.00000   180.00000     3.47010
     7.90000    90.00000   180.00000     4.39204    90.00000   180.00000     3.47009
     8.00000    90.00000   180.00000     4.39194    90.00000   180.00000     3.47008
     8.10000    90.00000   180.00000     4.39184    90.00000   180.00000     3.47007
     8.20000    90.00000   180.00000     4.39174    90.00000   180.00000     3.47006
     8.30000    90.00000   180.00000     4.39164    90.00000   180.00000     3.47005
     8.40000    90.00000   180.00000     4.39154    90.00000   180.00000     3.47004
     8.50000    90.00000   180.00000     4.39144    90.00000   180.00000     3.47003
     8.60000    90.00000   180.00000     4.39133    90.00000   180.00000     3.47002
     8.70000    90.00000   180.00000     4.39123    90.00000   180.00000     3.47001
     8.80000    90.00000   180.00000     4.39113    90.00000   180.00000     3.47000
     8.90000    90.00000   180.00000     4.39103    90.00000   180.00000     3.46999
     9.00000    90.00000   180.00000     4.39093    90.00000   180.00000     3.46998
     9.10000    90.00000   180.00000     4.39083    90.00000   180.00000     3.46997
     9.20000    90.00000   180.00000     4.39073    90.00000   180.00000     3.46996
     9.30000    90.00000   180.00000     4.39063    90.00000   180.00000     3.46995
     9.40000    90.00000   180.00000     4.39053    90.00000   180.00000     3.46994
     9.50000    90.00000   180.00000     4.39043    90.00000   180.00000     3.46993
     9.60000    90.00000   180.00000     4.39033    90.00000   180.00000     3.46992
     9.70000    90.00000   180.00000     4.39023    90.00000   180.00000     3.46991
     9.80000    90.00000   180.00000     4.39013    90.00000   180.00000     3.46990
     9.90000    90.00000   180.00000     4.39003    90.00000   180.00000     3.46989
    10.00000    90.00000   180.00000     4.38993    90.00000   180.00000     3.46988
    10.10000    90.00000   180.00000     4.38983    90.00000   180.00000     3.46987
    10.20000    90.00000   180.00000     4.38973    90.00000   180.00000     3.46986
    10.30000    90.00000   180.00000     4.38963    90.00000   180.00000     3.46985
    10.40000    90.00000   180.00000     4.38953    90.00000   180.00000     3.46984
    10.50000    90.00000   180.00000     4.38943    90.00000   180.00000     3.46983
    10.60000    90.00000   180.00000     4.38932    90.00000   180.00000     3.46982
    10.70000    90.00000   180.00000     4.38922    90.00000   180.00000     3.46981
    10.80000    90.00000   180.00000     4.38912    90.00000   180.00000     3.46980
    10.90000    90.00000   180.00000     4.38902    90.00000   180.00000     3.46979
    11.00000    90.00000   180.00000     4.38892    90.00000   180.00000     3.46978
    11.10000    90.00000   180.00000     4.38882    90.00000   180.00000     3.46977
    11.20000    90.00000   180.00000     4.38872    90.00000   180.00000     3.46976
    11.30000    90.00000   180.00000     4.38862    90.00000   180.00000     3.46975
    11.40000    90.00000   180.00000     4.38852    90.00000   180.00000     3.46974
    11.50000    90.00000   180.00000     4.38842    90.00000   180.00000     3.46973
    11.60000    90.00000   180.00000     4.38832    90.00000   180.00000     3.46972
    11.70000    90.00000   180.00000     4.38822    90.00000   180.00000     3.46971
    11.80000    90.00000   180.00000     4.38812    90.00000   180.00000     3.46970
    11.90000    90.00000   180.00000     4.38802    90.00000   180.00000     3.46969
    12.00000    90.00000   180.00000     4.38792    90.00000   180.00000     3.46968
    12.10000    90.00000   180.00000     4.38782    90.00000   180.00000     3.46967
    12.20000    90.00000   180.00000     4.38772    90.00000   180.00000     3.46966
    12.30000    90.00000   180.00000     4.38761    90.00000   180.00000     3.46965
    12.40000    90.00000   180.00000     4.38751    90.00000   180.00000     3.46964
    12.50000    90.00000   180.00000     4.38741    90.00000   180.00000     3.46963
    12.60000    90.00000   180.00000     4.38731    90.00000   180.00000     3.46962
    12.70000    90.00000   180.00000     4.38721    90.00000   180.00000     3.46961
    12.80000    90.00000   180.00000     4.38711    90.00000   180.00000     3.46960
    12.90000    90.00000   180.00000     4.38701    90.00000   180.00000     3.46959
    13.00000    90.00000   180.00000     4.38691    90.00000   180.00000     3.46958
    13.10000    90.00000   180.00000     4.38681    90.00000   180.00000     3.46957
    13.20000    90.00000   180.00000     4.38671    90.00000   180.00000     3.46956
    13.30000    90.00000   180.00000     4.38661    90.00000   180.00000     3.46955
    13.40000    90.00000   180.00000     4.38651    90.00000   180.00000     3.46954
    13.50000    90.00000   180.00000     4.38641    90.00000   180.00000     3.46952
    13.60000    90.00000   180.00000     4.38631    90.00000   180.00000     3.46951
    13.70000    90.00000   180.00000     4.38620    90.00000   180.00000     3.46950
    13.80000    90.00000   180.00000     4.38610    90.00000   180.00000     3.46949
    13.90000    90.00000   180.00000     4.38600    90.00000   180.00000     3.46948
    14.00000    90.00000   180.00000     4.38590    90.00000   180.00000     3.46947
    14.10000    90.00000   180.00000     4.38580    90.00000   180.00000     3.46946
    14.20000    90.00000   180.00000     4.38570    90.00000   180.00000     3.46945
    14.30000    90.00000   180.00000     4.38560    90.00000   180.00000     3.46944
    14.40000    90.00000   180.00000     4.38550    90.00000   180.00000     3.46943
    14.50000    90.00000   180.00000     4.38540    90.00000   180.00000     3.46942
    14.60000    90.00000   180.00000     4.38530    90.00000   180.00000     3.46941
    14.70000    90.00000   180.00000     4.38520    90.00000   180.00000     3.46940
    14.80000    90.00000   180.00000     4.38510    90.00000   180.00000     3.46939
    14.90000    90.00000   180.00000     4.38499    90.00000   180.00000     3.46937
    15.00000    90.00000   180.00000     4.38489    90.00000   180.00000     3.46936
    15.10000    90.00000   180.00000     4.38479    90.00000   180.00000     3.46935
    15.20000    90.00000   180.00000     4.38469    90.00000   180.00000     3.46934
    15.30000    90.00000   180.00000     4.38459    90.00000   180.00000     3.46933
    15.40000    90.00000   180.00000     4.38449    90.00000   180.00000     3.46932
    15.50000    90.00000   180.00000     4.38439    90.00000   180.00000     3.46931
    15.60000    90.00000   180.00000     4.38429    90.00000   180.00000     3.46930
    15.70000    90.00000   180.00000     4.38419    90.00000   180.00000     3.46929
    15.80000    90.00000   180.00000     4.38409    90.00000   180.00000     3.46928
    15.90000    90.00000   180.00000     4.38399    90.00000   180.00000     3.46926
    16.00000    90.00000   180.00000     4.38389    90.00000   180.00000     3.46925
    16.10000    90.00000   180.00000     4.38378    90.00000   180.00000     3.46924
    16.20000    90.00000   180.00000     4.38368    90.00000   180.00000     3.46923
    16.30000    90.00000   180.00000     4.38358    90.00000   180.00000     3.46922
    16.40000    90.00000   180.00000     4.38348    90.00000   180.00000     3.46921
    16.50000    90.00000   180.00000     4.38338    90.00000   180.00000     3.46920
    16.60000    90.00000   180.00000     4.38328    90.00000   180.00000     3.46919
    16.70000    90.00000   180.00000     4.38318    90.00000   180.00000     3.46918
    16.80000    90.00000   180.00000     4.38308    90.00000   180.00000     3.46916
    16.90000    90.00000   180.00000     4.38298    90.00000   180.00000     3.46915
    17.00000    90.00000   180.00000     4.38288    90.00000   180.00000     3.46914
    17.10000    90.00000   180.00000     4.38277    90.00000   180.00000     3.46913
    17.20000    90.00000   180.00000     4.38267    90.00000   180.00000     3.46912
    17.30000    90.00000   180.00000     4.38257    90.00000   180.00000     3.46911
    17.40000    90.00000   180.00000     4.38247    90.00000   180.00000     3.46910
    17.50000    90.00000   180.00000     4.38237    90.00000   180.00000     3.46909
    17.60000    90.00000   180.00000     4.38227    90.00000   180.00000     3.46907
    17.70000    90.00000   180.00000     4.38217    90.00000   180.00000     3.46906
    17.80000    90.00000   180.00000     4.38207    90.00000   180.00000     3.46905
    17.90000    90.00000   180.00000     4.38197    90.00000   180.00000     3.46904
    18.00000    90.00000   180.00000     4.38186    90.00000   180.00000     3.46903
    18.10000    90.00000   180.00000     4.38176    90.00000   180.00000     3.46902
    18.20000    90.00000   180.00000     4.38166    90.00000   180.00000     3.46901
    18.30000    90.00000   180.00000     4.38156    90.00000   180.00000     3.46899
    18.40000    90.00000   180.00000     4.38146    90.00000   180.00000     3.46898
    18.50000    90.00000   180.00000     4.38136    90.00000   180.00000     3.46897
    18.60000    90.00000   180.00000     4.38126    90.00000   180.00000     3.46896
    18.70000    90.00000   180.00000     4.38116    90.00000   180.00000     3.46895
    18.80000    90.00000   180.00000     4.38106    90.00000   180.00000     3.46894
    18.90000    90.00000   180.00000     4.38095    90.00000   180.00000     3.46892
    19.00000    90.00000   180.00000     4.38085    90.00000   180.00000     3.46891
    19.10000    90.00000   180.00000     4.38075    90.00000   180.00000     3.46890
    19.20000    90.00000   180.00000     4.38065    90.00000   180.00000     3.46889
    19.30000    90.00000   180.00000     4.38055    90.00000   180.00000     3.46888
    19.40000    90.00000   180.00000     4.38045    90.00000   180.00000     3.46887
    19.50000    90.00000   180.00000     4.38035    90.00000   180.00000     3.46885
    19.60000    90.00000   180.00000     4.38025    90.00000   180.00000     3.46884
    19.70000    90.00000   180.00000     4.38015    90.00000   180.00000     3.46883
    19.80000    90.00000   180.00000     4.38004    90.00000   180.00000     3.46882
    19.90000    90.00000   180.00000     4.37994    90.00000   180.00000     3.46881
    20.00000    90.00000   180.00000     4.37984    90.00000   180.00000     3.46880
    20.10000    90.00000   180.00000     4.37974    90.00000   180.00000     3.46878
    20.20000    90.00000   180.00000     4.37964    90.00000   180.00000     3.46877
    20.30000    90.00000   180.00000     4.37954    90.00000   180.00000     3.46876
    20.40000    90.00000   180.00000     4.37944    90.00000   180.00000     3.46875
    20.50000    90.00000   180.00000     4.37934    90.00000   180.00000     3.46874
    20.60000    90.00000   180.00000     4.37923    90.00000   180.00000     3.46872
    20.70000    90.00000   180.00000     4.37913    90.00000   180.00000     3.46871
    20.80000    90.00000   180.00000     4.37903    90.00000   180.00000     3.46870
    20.90000    90.00000   180.00000     4.37893    90.00000   180.00000     3.46869
    21.00000    90.00000   180.00000     4.37883    90.00000   180.00000     3.46868
    21.10000    90.00000   180.00000     4.37873    90.00000   180.00000     3.46866
    21.20000    90.00000   180.00000     4.37863    90.00000   180.00000     3.46865
    21.30000    90.00000   180.00000     4.37852    90.00000   180.00000     3.46864
    21.40000    90.00000   180.00000     4.37842    90.00000   180.00000     3.46863
    21.50000    90.00000   180.00000     4.37832    90.00000   180.00000     3.46862
    21.60000    90.00000   180.00000     4.37822    90.00000   180.00000     3.46860
    21.70000    90.00000   180.00000     4.37812    90.00000   180.00000     3.46859
    21.80000    90.00000   180.00000     4.37802    90.00000   180.00000     3.46858
    21.90000    90.00000   180.00000     4.37792    90.00000   180.00000     3.46857
    22.00000    90.00000   180.00000     4.37782    90.00000   180.00000     3.46856
    22.10000    90.00000   180.00000     4.37771    90.00000   180.00000     3.46854
    22.20000    90.00000   180.00000     4.37761    90.00000   180.00000     3.46853
    22.30000    90.00000   180.00000     4.37751    90.00000   180.00000     3.46852
    22.40000    90.00000   180.00000     4.37741    90.00000   180.00000     3.46851
    22.50000    90.00000   180.00000     4.37731    90.00000   180.00000     3.46849
    22.60000    90.00000   180.00000     4.37721    90.00000   180.00000     3.46848
    22.70000    90.00000   180.00000     4.37711    90.00000   180.00000     3.46847
    22.80000    90.00000   180.00000     4.37700    90.00000   180.00000     3.46846
    22.90000    90.00000   180.00000     4.37690    90.00000   180.00000     3.46844
    23.00000    90.00000   180.00000     4.37680    90.00000   180.00000     3.46843
    23.10000    90.00000   180.00000     4.37670    90.00000   180.00000     3.46842
    23.20000    90.00000   180.00000     4.37660    90.00000   180.00000     3.46841
    23.30000    90.00000   180.00000     4.37650    90.00000   180.00000     3.46839
