 # applied field (T), theta (degree), phi (degree), abs [muB/unitcell], abs [T]
       0.00000000      90.00000000      45.00000000      34.70690590       1.16024495
       0.10000000      90.00000000      45.00000000      34.70714123       1.16025282
       0.20000000      90.00000000      45.00000000      34.70737653       1.16026069
       0.30000000      90.00000000      45.00000000      34.70761182       1.16026855
       0.40000000      90.00000000      45.00000000      34.70784708       1.16027642
       0.50000000      90.00000000      45.00000000      34.70808232       1.16028428
       0.60000000      90.00000000      45.00000000      34.70831754       1.16029214
       0.70000000      90.00000000      45.00000000      34.70855273       1.16030001
       0.80000000      90.00000000      45.00000000      34.70878791       1.16030787
       0.90000000      90.00000000      45.00000000      34.70902306       1.16031573
       1.00000000      90.00000000      45.00000000      34.70925820       1.16032359
       1.10000000      90.00000000      45.00000000      34.70949331       1.16033145
       1.20000000      90.00000000      45.00000000      34.70972840       1.16033931
       1.30000000      90.00000000      45.00000000      34.70996346       1.16034717
       1.40000000      90.00000000      45.00000000      34.71019851       1.16035502
       1.50000000      90.00000000      45.00000000      34.71043353       1.16036288
       1.60000000      90.00000000      45.00000000      34.71066854       1.16037074
       1.70000000      90.00000000      45.00000000      34.71090352       1.16037859
       1.80000000      90.00000000      45.00000000      34.71113848       1.16038645
       1.90000000      90.00000000      45.00000000      34.71137342       1.16039430
       2.00000000      90.00000000      45.00000000      34.71160833       1.16040215
       2.10000000      90.00000000      45.00000000      34.71184323       1.16041001
       2.20000000      90.00000000      45.00000000      34.71207810       1.16041786
       2.30000000      90.00000000      45.00000000      34.71231295       1.16042571
       2.40000000      90.00000000      45.00000000      34.71254779       1.16043356
       2.50000000      90.00000000      45.00000000      34.71278259       1.16044141
       2.60000000      90.00000000      45.00000000      34.71301738       1.16044926
       2.70000000      90.00000000      45.00000000      34.71325215       1.16045711
       2.80000000      90.00000000      45.00000000      34.71348689       1.16046495
       2.90000000      90.00000000      45.00000000      34.71372162       1.16047280
       3.00000000      90.00000000      45.00000000      34.71395632       1.16048065
       3.10000000      90.00000000      45.00000000      34.71419100       1.16048849
       3.20000000      90.00000000      45.00000000      34.71442566       1.16049634
       3.30000000      90.00000000      45.00000000      34.71466029       1.16050418
       3.40000000      90.00000000      45.00000000      34.71489491       1.16051202
       3.50000000      90.00000000      45.00000000      34.71512951       1.16051987
       3.60000000      90.00000000      45.00000000      34.71536408       1.16052771
       3.70000000      90.00000000      45.00000000      34.71559863       1.16053555
       3.80000000      90.00000000      45.00000000      34.71583316       1.16054339
       3.90000000      90.00000000      45.00000000      34.71606767       1.16055123
       4.00000000      90.00000000      45.00000000      34.71630216       1.16055907
       4.10000000      90.00000000      45.00000000      34.71653662       1.16056691
       4.20000000      90.00000000      45.00000000      34.71677107       1.16057474
       4.30000000      90.00000000      45.00000000      34.71700549       1.16058258
       4.40000000      90.00000000      45.00000000      34.71723990       1.16059042
       4.50000000      90.00000000      45.00000000      34.71747428       1.16059825
       4.60000000      90.00000000      45.00000000      34.71770864       1.16060609
       4.70000000      90.00000000      45.00000000      34.71794298       1.16061392
       4.80000000      90.00000000      45.00000000      34.71817729       1.16062175
       4.90000000      90.00000000      45.00000000      34.71841159       1.16062959
       5.00000000      90.00000000      45.00000000      34.71864586       1.16063742
       5.10000000      90.00000000      45.00000000      34.71888012       1.16064525
       5.20000000      90.00000000      45.00000000      34.71911435       1.16065308
       5.30000000      90.00000000      45.00000000      34.71934856       1.16066091
       5.40000000      90.00000000      45.00000000      34.71958275       1.16066874
       5.50000000      90.00000000      45.00000000      34.71981692       1.16067657
       5.60000000      90.00000000      45.00000000      34.72005106       1.16068439
       5.70000000      90.00000000      45.00000000      34.72028519       1.16069222
       5.80000000      90.00000000      45.00000000      34.72051930       1.16070005
       5.90000000      90.00000000      45.00000000      34.72075338       1.16070787
       6.00000000      90.00000000      45.00000000      34.72098744       1.16071570
       6.10000000      90.00000000      45.00000000      34.72122148       1.16072352
       6.20000000      90.00000000      45.00000000      34.72145550       1.16073134
       6.30000000      90.00000000      45.00000000      34.72168950       1.16073917
       6.40000000      90.00000000      45.00000000      34.72192348       1.16074699
       6.50000000      90.00000000      45.00000000      34.72215743       1.16075481
       6.60000000      90.00000000      45.00000000      34.72239137       1.16076263
       6.70000000      90.00000000      45.00000000      34.72262528       1.16077045
       6.80000000      90.00000000      45.00000000      34.72285918       1.16077827
       6.90000000      90.00000000      45.00000000      34.72309305       1.16078609
       7.00000000      90.00000000      45.00000000      34.72332690       1.16079390
       7.10000000      90.00000000      45.00000000      34.72356073       1.16080172
       7.20000000      90.00000000      45.00000000      34.72379454       1.16080954
       7.30000000      90.00000000      45.00000000      34.72402833       1.16081735
       7.40000000      90.00000000      45.00000000      34.72426209       1.16082517
       7.50000000      90.00000000      45.00000000      34.72449584       1.16083298
       7.60000000      90.00000000      45.00000000      34.72472956       1.16084079
       7.70000000      90.00000000      45.00000000      34.72496326       1.16084861
       7.80000000      90.00000000      45.00000000      34.72519695       1.16085642
       7.90000000      90.00000000      45.00000000      34.72543061       1.16086423
       8.00000000      90.00000000      45.00000000      34.72566425       1.16087204
       8.10000000      90.00000000      45.00000000      34.72589787       1.16087985
       8.20000000      90.00000000      45.00000000      34.72613146       1.16088766
       8.30000000      90.00000000      45.00000000      34.72636504       1.16089547
       8.40000000      90.00000000      45.00000000      34.72659860       1.16090328
       8.50000000      90.00000000      45.00000000      34.72683213       1.16091108
       8.60000000      90.00000000      45.00000000      34.72706565       1.16091889
       8.70000000      90.00000000      45.00000000      34.72729914       1.16092669
       8.80000000      90.00000000      45.00000000      34.72753261       1.16093450
       8.90000000      90.00000000      45.00000000      34.72776606       1.16094230
       9.00000000      90.00000000      45.00000000      34.72799949       1.16095011
       9.10000000      90.00000000      45.00000000      34.72823290       1.16095791
       9.20000000      90.00000000      45.00000000      34.72846629       1.16096571
       9.30000000      90.00000000      45.00000000      34.72869966       1.16097351
       9.40000000      90.00000000      45.00000000      34.72893300       1.16098131
       9.50000000      90.00000000      45.00000000      34.72916633       1.16098911
       9.60000000      90.00000000      45.00000000      34.72939963       1.16099691
       9.70000000      90.00000000      45.00000000      34.72963292       1.16100471
       9.80000000      90.00000000      45.00000000      34.72986618       1.16101251
       9.90000000      90.00000000      45.00000000      34.73009942       1.16102031
      10.00000000      90.00000000      45.00000000      34.73033264       1.16102810
      10.10000000      90.00000000      45.00000000      34.73056584       1.16103590
      10.20000000      90.00000000      45.00000000      34.73079902       1.16104370
      10.30000000      90.00000000      45.00000000      34.73103218       1.16105149
      10.40000000      90.00000000      45.00000000      34.73126532       1.16105928
      10.50000000      90.00000000      45.00000000      34.73149844       1.16106708
      10.60000000      90.00000000      45.00000000      34.73173153       1.16107487
      10.70000000      90.00000000      45.00000000      34.73196461       1.16108266
      10.80000000      90.00000000      45.00000000      34.73219766       1.16109045
      10.90000000      90.00000000      45.00000000      34.73243070       1.16109824
      11.00000000      90.00000000      45.00000000      34.73266371       1.16110603
      11.10000000      90.00000000      45.00000000      34.73289670       1.16111382
      11.20000000      90.00000000      45.00000000      34.73312967       1.16112161
      11.30000000      90.00000000      45.00000000      34.73336262       1.16112940
      11.40000000      90.00000000      45.00000000      34.73359555       1.16113718
      11.50000000      90.00000000      45.00000000      34.73382846       1.16114497
      11.60000000      90.00000000      45.00000000      34.73406135       1.16115275
      11.70000000      90.00000000      45.00000000      34.73429422       1.16116054
      11.80000000      90.00000000      45.00000000      34.73452707       1.16116832
      11.90000000      90.00000000      45.00000000      34.73475989       1.16117611
      12.00000000      90.00000000      45.00000000      34.73499270       1.16118389
      12.10000000      90.00000000      45.00000000      34.73522548       1.16119167
      12.20000000      90.00000000      45.00000000      34.73545825       1.16119945
      12.30000000      90.00000000      45.00000000      34.73569099       1.16120723
      12.40000000      90.00000000      45.00000000      34.73592371       1.16121501
      12.50000000      90.00000000      45.00000000      34.73615641       1.16122279
      12.60000000      90.00000000      45.00000000      34.73638910       1.16123057
      12.70000000      90.00000000      45.00000000      34.73662176       1.16123835
      12.80000000      90.00000000      45.00000000      34.73685440       1.16124613
      12.90000000      90.00000000      45.00000000      34.73708702       1.16125390
      13.00000000      90.00000000      45.00000000      34.73731962       1.16126168
      13.10000000      90.00000000      45.00000000      34.73755219       1.16126945
      13.20000000      90.00000000      45.00000000      34.73778475       1.16127723
      13.30000000      90.00000000      45.00000000      34.73801729       1.16128500
      13.40000000      90.00000000      45.00000000      34.73824981       1.16129277
      13.50000000      90.00000000      45.00000000      34.73848230       1.16130055
      13.60000000      90.00000000      45.00000000      34.73871478       1.16130832
      13.70000000      90.00000000      45.00000000      34.73894723       1.16131609
      13.80000000      90.00000000      45.00000000      34.73917967       1.16132386
      13.90000000      90.00000000      45.00000000      34.73941208       1.16133163
      14.00000000      90.00000000      45.00000000      34.73964447       1.16133940
      14.10000000      90.00000000      45.00000000      34.73987685       1.16134716
      14.20000000      90.00000000      45.00000000      34.74010920       1.16135493
      14.30000000      90.00000000      45.00000000      34.74034153       1.16136270
      14.40000000      90.00000000      45.00000000      34.74057384       1.16137047
      14.50000000      90.00000000      45.00000000      34.74080613       1.16137823
      14.60000000      90.00000000      45.00000000      34.74103840       1.16138600
      14.70000000      90.00000000      45.00000000      34.74127065       1.16139376
      14.80000000      90.00000000      45.00000000      34.74150288       1.16140152
      14.90000000      90.00000000      45.00000000      34.74173509       1.16140929
      15.00000000      90.00000000      45.00000000      34.74196728       1.16141705
      15.10000000      90.00000000      45.00000000      34.74219945       1.16142481
      15.20000000      90.00000000      45.00000000      34.74243159       1.16143257
      15.30000000      90.00000000      45.00000000      34.74266372       1.16144033
      15.40000000      90.00000000      45.00000000      34.74289583       1.16144809
      15.50000000      90.00000000      45.00000000      34.74312791       1.16145585
      15.60000000      90.00000000      45.00000000      34.74335998       1.16146361
      15.70000000      90.00000000      45.00000000      34.74359203       1.16147136
      15.80000000      90.00000000      45.00000000      34.74382405       1.16147912
      15.90000000      90.00000000      45.00000000      34.74405606       1.16148688
      16.00000000      90.00000000      45.00000000      34.74428804       1.16149463
      16.10000000      90.00000000      45.00000000      34.74452000       1.16150238
      16.20000000      90.00000000      45.00000000      34.74475195       1.16151014
      16.30000000      90.00000000      45.00000000      34.74498387       1.16151789
      16.40000000      90.00000000      45.00000000      34.74521577       1.16152564
      16.50000000      90.00000000      45.00000000      34.74544766       1.16153340
      16.60000000      90.00000000      45.00000000      34.74567952       1.16154115
      16.70000000      90.00000000      45.00000000      34.74591136       1.16154890
      16.80000000      90.00000000      45.00000000      34.74614318       1.16155665
      16.90000000      90.00000000      45.00000000      34.74637498       1.16156440
      17.00000000      90.00000000      45.00000000      34.74660676       1.16157214
      17.10000000      90.00000000      45.00000000      34.74683852       1.16157989
      17.20000000      90.00000000      45.00000000      34.74707027       1.16158764
      17.30000000      90.00000000      45.00000000      34.74730199       1.16159539
      17.40000000      90.00000000      45.00000000      34.74753369       1.16160313
      17.50000000      90.00000000      45.00000000      34.74776537       1.16161088
      17.60000000      90.00000000      45.00000000      34.74799703       1.16161862
      17.70000000      90.00000000      45.00000000      34.74822866       1.16162636
      17.80000000      90.00000000      45.00000000      34.74846028       1.16163411
      17.90000000      90.00000000      45.00000000      34.74869188       1.16164185
      18.00000000      90.00000000      45.00000000      34.74892346       1.16164959
      18.10000000      90.00000000      45.00000000      34.74915502       1.16165733
      18.20000000      90.00000000      45.00000000      34.74938656       1.16166507
      18.30000000      90.00000000      45.00000000      34.74961808       1.16167281
      18.40000000      90.00000000      45.00000000      34.74984957       1.16168055
      18.50000000      90.00000000      45.00000000      34.75008105       1.16168829
      18.60000000      90.00000000      45.00000000      34.75031251       1.16169603
      18.70000000      90.00000000      45.00000000      34.75054395       1.16170376
      18.80000000      90.00000000      45.00000000      34.75077536       1.16171150
      18.90000000      90.00000000      45.00000000      34.75100676       1.16171924
      19.00000000      90.00000000      45.00000000      34.75123814       1.16172697
      19.10000000      90.00000000      45.00000000      34.75146950       1.16173470
      19.20000000      90.00000000      45.00000000      34.75170083       1.16174244
      19.30000000      90.00000000      45.00000000      34.75193215       1.16175017
      19.40000000      90.00000000      45.00000000      34.75216345       1.16175790
      19.50000000      90.00000000      45.00000000      34.75239472       1.16176564
      19.60000000      90.00000000      45.00000000      34.75262598       1.16177337
      19.70000000      90.00000000      45.00000000      34.75285722       1.16178110
      19.80000000      90.00000000      45.00000000      34.75308843       1.16178883
      19.90000000      90.00000000      45.00000000      34.75331963       1.16179655
      20.00000000      90.00000000      45.00000000      34.75355081       1.16180428
      20.10000000      90.00000000      45.00000000      34.75378196       1.16181201
      20.20000000      90.00000000      45.00000000      34.75401310       1.16181974
      20.30000000      90.00000000      45.00000000      34.75424421       1.16182746
      20.40000000      90.00000000      45.00000000      34.75447531       1.16183519
      20.50000000      90.00000000      45.00000000      34.75470639       1.16184291
      20.60000000      90.00000000      45.00000000      34.75493744       1.16185064
      20.70000000      90.00000000      45.00000000      34.75516848       1.16185836
      20.80000000      90.00000000      45.00000000      34.75539950       1.16186608
      20.90000000      90.00000000      45.00000000      34.75563049       1.16187381
      21.00000000      90.00000000      45.00000000      34.75586147       1.16188153
      21.10000000      90.00000000      45.00000000      34.75609243       1.16188925
      21.20000000      90.00000000      45.00000000      34.75632336       1.16189697
      21.30000000      90.00000000      45.00000000      34.75655428       1.16190469
      21.40000000      90.00000000      45.00000000      34.75678518       1.16191241
      21.50000000      90.00000000      45.00000000      34.75701605       1.16192013
      21.60000000      90.00000000      45.00000000      34.75724691       1.16192784
      21.70000000      90.00000000      45.00000000      34.75747775       1.16193556
      21.80000000      90.00000000      45.00000000      34.75770856       1.16194328
      21.90000000      90.00000000      45.00000000      34.75793936       1.16195099
      22.00000000      90.00000000      45.00000000      34.75817014       1.16195871
      22.10000000      90.00000000      45.00000000      34.75840090       1.16196642
      22.20000000      90.00000000      45.00000000      34.75863163       1.16197413
      22.30000000      90.00000000      45.00000000      34.75886235       1.16198185
      22.40000000      90.00000000      45.00000000      34.75909305       1.16198956
      22.50000000      90.00000000      45.00000000      34.75932373       1.16199727
      22.60000000      90.00000000      45.00000000      34.75955439       1.16200498
      22.70000000      90.00000000      45.00000000      34.75978503       1.16201269
      22.80000000      90.00000000      45.00000000      34.76001564       1.16202040
      22.90000000      90.00000000      45.00000000      34.76024624       1.16202811
      23.00000000      90.00000000      45.00000000      34.76047682       1.16203582
