 # applied field (T), theta (degree), phi (degree), abs [muB/unitcell], abs [T]
       0.00000000       0.00000000       0.00000000      42.21847948       1.42100371
       0.10000000       0.28416092     360.00000000      42.21848039       1.42100374
       0.20000000       0.56832239     360.00000000      42.21848313       1.42100384
       0.30000000       0.85248498     360.00000000      42.21848770       1.42100399
       0.40000000       1.19333145     360.00000000      42.21849499       1.42100423
       0.50000000       1.47749848     360.00000000      42.21850345       1.42100452
       0.60000000       1.76166841     360.00000000      42.21851375       1.42100487
       0.70000000       2.04584181     360.00000000      42.21852589       1.42100527
       0.80000000       2.33001923     360.00000000      42.21853988       1.42100575
       0.90000000       2.61420123     360.00000000      42.21855572       1.42100628
       1.00000000       2.95507561     360.00000000      42.21857568       1.42100695
       1.10000000       3.23926966     360.00000000      42.21859549       1.42100762
       1.20000000       3.52347007     360.00000000      42.21861718       1.42100835
       1.30000000       3.80767739     360.00000000      42.21864076       1.42100914
       1.40000000       4.09189219     360.00000000      42.21866624       1.42101000
       1.50000000       4.43280982     360.00000000      42.21869708       1.42101104
       1.60000000       4.71704301     360.00000000      42.21872664       1.42101203
       1.70000000       5.00128543     360.00000000      42.21875814       1.42101309
       1.80000000       5.28553764     360.00000000      42.21879159       1.42101422
       1.90000000       5.56980019     360.00000000      42.21882700       1.42101541
       2.00000000       5.91077901     360.00000000      42.21886911       1.42101683
       2.10000000       6.19506624     360.00000000      42.21890877       1.42101816
       2.20000000       6.47936555     360.00000000      42.21895043       1.42101956
       2.30000000       6.82039088     360.00000000      42.21899966       1.42102122
       2.40000000       7.10471870     360.00000000      42.21904568       1.42102277
       2.50000000       7.38906033     360.00000000      42.21909376       1.42102439
       2.60000000       7.73013885     360.00000000      42.21915032       1.42102629
       2.70000000       8.01451278     360.00000000      42.21920288       1.42102806
       2.80000000       8.29890224     360.00000000      42.21925756       1.42102990
       2.90000000       8.64004051     360.00000000      42.21932168       1.42103206
       3.00000000       8.92446602     360.00000000      42.21938097       1.42103405
       3.10000000       9.26564918     360.00000000      42.21945038       1.42103639
       3.20000000       9.55011328     360.00000000      42.21951438       1.42103855
       3.30000000       9.83459573     360.00000000      42.21958061       1.42104077
       3.40000000      10.17584958     360.00000000      42.21965800       1.42104338
       3.50000000      10.51713160     360.00000000      42.21973835       1.42104608
       3.60000000      10.80168041     360.00000000      42.21981206       1.42104856
       3.70000000      11.14301634     360.00000000      42.21989806       1.42105146
       3.80000000      11.42761119     360.00000000      42.21997677       1.42105411
       3.90000000      11.76900396     360.00000000      42.22006855       1.42105720
       4.00000000      12.11042898     360.00000000      42.22016347       1.42106039
       4.10000000      12.39509976     360.00000000      42.22025005       1.42106331
       4.20000000      12.73658604     360.00000000      42.22035093       1.42106670
       4.30000000      13.07810697     360.00000000      42.22045505       1.42107021
       4.40000000      13.41966336     360.00000000      42.22056245       1.42107382
       4.50000000      13.70444577     360.00000000      42.22066000       1.42107710
       4.60000000      14.04606922     360.00000000      42.22077360       1.42108093
       4.70000000      14.38773042     360.00000000      42.22089057       1.42108487
       4.80000000      14.72943015     360.00000000      42.22101095       1.42108892
       4.90000000      15.07116919     360.00000000      42.22113475       1.42109308
       5.00000000      15.41294830     360.00000000      42.22126201       1.42109737
       5.10000000      15.75476823     360.00000000      42.22139276       1.42110177
       5.20000000      16.15348692     360.00000000      42.22154339       1.42110684
       5.30000000      16.49539790     360.00000000      42.22168167       1.42111149
       5.40000000      16.83735200     360.00000000      42.22182352       1.42111627
       5.50000000      17.17934990     360.00000000      42.22196897       1.42112116
       5.60000000      17.57828032     360.00000000      42.22213640       1.42112680
       5.70000000      17.92037554     360.00000000      42.22228957       1.42113195
       5.80000000      18.31942152     360.00000000      42.22246585       1.42113789
       5.90000000      18.71853122     360.00000000      42.22264687       1.42114398
       6.00000000      19.06078207     360.00000000      42.22281204       1.42114954
       6.10000000      19.46001255     360.00000000      42.22300201       1.42115593
       6.20000000      19.85930944     360.00000000      42.22319678       1.42116249
       6.30000000      20.25867361     360.00000000      42.22339635       1.42116921
       6.40000000      20.65810589     360.00000000      42.22360073       1.42117608
       6.50000000      21.05760708     360.00000000      42.22380990       1.42118313
       6.60000000      21.45717792     360.00000000      42.22402387       1.42119033
       6.70000000      21.91381213     360.00000000      42.22426739       1.42119852
       6.80000000      22.31353475     360.00000000      42.22449151       1.42120607
       6.90000000      22.77034444     360.00000000      42.22474641       1.42121465
       7.00000000      23.22724908     360.00000000      42.22500728       1.42122343
       7.10000000      23.68424947     360.00000000      42.22527409       1.42123241
       7.20000000      24.14134631     360.00000000      42.22554677       1.42124159
       7.30000000      24.65560598     360.00000000      42.22585402       1.42125193
       7.40000000      25.11290995     360.00000000      42.22613892       1.42126152
       7.50000000      25.62740430     360.00000000      42.22645957       1.42127231
       7.60000000      26.14202378     360.00000000      42.22678713       1.42128333
       7.70000000      26.65676878     360.00000000      42.22712145       1.42129459
       7.80000000      27.22877583     360.00000000      42.22749462       1.42130715
       7.90000000      27.80093868     360.00000000      42.22787562       1.42131997
       8.00000000      28.37325720     360.00000000      42.22826425       1.42133305
       8.10000000      29.00291628     360.00000000      42.22869465       1.42134754
       8.20000000      29.68996712     360.00000000      42.22916870       1.42136349
       8.30000000      30.37724033     360.00000000      42.22965233       1.42137977
       8.40000000      31.06473393     360.00000000      42.23014508       1.42139636
       8.50000000      31.86696955     360.00000000      42.23072114       1.42141575
       8.60000000      90.00000000     360.00000000      42.26221919       1.42247592
       8.70000000      90.00000000     360.00000000      42.26226081       1.42247732
       8.80000000      90.00000000     360.00000000      42.26230244       1.42247872
       8.90000000      90.00000000     360.00000000      42.26234407       1.42248012
       9.00000000      90.00000000     360.00000000      42.26238570       1.42248152
       9.10000000      90.00000000     360.00000000      42.26242735       1.42248292
       9.20000000      90.00000000     360.00000000      42.26246899       1.42248433
       9.30000000      90.00000000     360.00000000      42.26251064       1.42248573
       9.40000000      90.00000000     360.00000000      42.26255230       1.42248713
       9.50000000      90.00000000     360.00000000      42.26259396       1.42248853
       9.60000000      90.00000000     360.00000000      42.26263563       1.42248993
       9.70000000      90.00000000     360.00000000      42.26267730       1.42249134
       9.80000000      90.00000000     360.00000000      42.26271897       1.42249274
       9.90000000      90.00000000     360.00000000      42.26276065       1.42249414
      10.00000000      90.00000000     360.00000000      42.26280234       1.42249555
      10.10000000      90.00000000     360.00000000      42.26284403       1.42249695
      10.20000000      90.00000000     360.00000000      42.26288573       1.42249835
      10.30000000      90.00000000     360.00000000      42.26292743       1.42249976
      10.40000000      90.00000000     360.00000000      42.26296913       1.42250116
      10.50000000      90.00000000     360.00000000      42.26301084       1.42250256
      10.60000000      90.00000000     360.00000000      42.26305256       1.42250397
      10.70000000      90.00000000     360.00000000      42.26309428       1.42250537
      10.80000000      90.00000000     360.00000000      42.26313600       1.42250678
      10.90000000      90.00000000     360.00000000      42.26317773       1.42250818
      11.00000000      90.00000000     360.00000000      42.26321947       1.42250959
      11.10000000      90.00000000     360.00000000      42.26326121       1.42251099
      11.20000000      90.00000000     360.00000000      42.26330295       1.42251240
      11.30000000      90.00000000     360.00000000      42.26334470       1.42251380
      11.40000000      90.00000000     360.00000000      42.26338646       1.42251521
      11.50000000      90.00000000     360.00000000      42.26342822       1.42251661
      11.60000000      90.00000000     360.00000000      42.26346998       1.42251802
      11.70000000      90.00000000     360.00000000      42.26351175       1.42251942
      11.80000000      90.00000000     360.00000000      42.26355352       1.42252083
      11.90000000      90.00000000     360.00000000      42.26359530       1.42252224
      12.00000000      90.00000000     360.00000000      42.26363709       1.42252364
      12.10000000      90.00000000     360.00000000      42.26367888       1.42252505
      12.20000000      90.00000000     360.00000000      42.26372067       1.42252646
      12.30000000      90.00000000     360.00000000      42.26376247       1.42252786
      12.40000000      90.00000000     360.00000000      42.26380428       1.42252927
      12.50000000      90.00000000     360.00000000      42.26384608       1.42253068
      12.60000000      90.00000000     360.00000000      42.26388790       1.42253208
      12.70000000      90.00000000     360.00000000      42.26392972       1.42253349
      12.80000000      90.00000000     360.00000000      42.26397154       1.42253490
      12.90000000      90.00000000     360.00000000      42.26401337       1.42253631
      13.00000000      90.00000000     360.00000000      42.26405520       1.42253772
      13.10000000      90.00000000     360.00000000      42.26409704       1.42253912
      13.20000000      90.00000000     360.00000000      42.26413889       1.42254053
      13.30000000      90.00000000     360.00000000      42.26418074       1.42254194
      13.40000000      90.00000000     360.00000000      42.26422259       1.42254335
      13.50000000      90.00000000     360.00000000      42.26426445       1.42254476
      13.60000000      90.00000000     360.00000000      42.26430631       1.42254617
      13.70000000      90.00000000     360.00000000      42.26434818       1.42254758
      13.80000000      90.00000000     360.00000000      42.26439005       1.42254899
      13.90000000      90.00000000     360.00000000      42.26443193       1.42255040
      14.00000000      90.00000000     360.00000000      42.26447382       1.42255180
      14.10000000      90.00000000     360.00000000      42.26451570       1.42255321
      14.20000000      90.00000000     360.00000000      42.26455760       1.42255462
      14.30000000      90.00000000     360.00000000      42.26459950       1.42255604
      14.40000000      90.00000000     360.00000000      42.26464140       1.42255745
      14.50000000      90.00000000     360.00000000      42.26468331       1.42255886
      14.60000000      90.00000000     360.00000000      42.26472522       1.42256027
      14.70000000      90.00000000     360.00000000      42.26476714       1.42256168
      14.80000000      90.00000000     360.00000000      42.26480906       1.42256309
      14.90000000      90.00000000     360.00000000      42.26485099       1.42256450
      15.00000000      90.00000000     360.00000000      42.26489292       1.42256591
      15.10000000      90.00000000     360.00000000      42.26493486       1.42256732
      15.20000000      90.00000000     360.00000000      42.26497680       1.42256873
      15.30000000      90.00000000     360.00000000      42.26501875       1.42257015
      15.40000000      90.00000000     360.00000000      42.26506071       1.42257156
      15.50000000      90.00000000     360.00000000      42.26510266       1.42257297
      15.60000000      90.00000000     360.00000000      42.26514463       1.42257438
      15.70000000      90.00000000     360.00000000      42.26518659       1.42257580
      15.80000000      90.00000000     360.00000000      42.26522857       1.42257721
      15.90000000      90.00000000     360.00000000      42.26527055       1.42257862
      16.00000000      90.00000000     360.00000000      42.26531253       1.42258003
      16.10000000      90.00000000     360.00000000      42.26535452       1.42258145
      16.20000000      90.00000000     360.00000000      42.26539651       1.42258286
      16.30000000      90.00000000     360.00000000      42.26543851       1.42258427
      16.40000000      90.00000000     360.00000000      42.26548051       1.42258569
      16.50000000      90.00000000     360.00000000      42.26552252       1.42258710
      16.60000000      90.00000000     360.00000000      42.26556453       1.42258852
      16.70000000      90.00000000     360.00000000      42.26560655       1.42258993
      16.80000000      90.00000000     360.00000000      42.26564857       1.42259135
      16.90000000      90.00000000     360.00000000      42.26569060       1.42259276
      17.00000000      90.00000000     360.00000000      42.26573263       1.42259417
      17.10000000      90.00000000     360.00000000      42.26577467       1.42259559
      17.20000000      90.00000000     360.00000000      42.26581671       1.42259700
      17.30000000      90.00000000     360.00000000      42.26585876       1.42259842
      17.40000000      90.00000000     360.00000000      42.26590081       1.42259984
      17.50000000      90.00000000     360.00000000      42.26594287       1.42260125
      17.60000000      90.00000000     360.00000000      42.26598493       1.42260267
      17.70000000      90.00000000     360.00000000      42.26602700       1.42260408
      17.80000000      90.00000000     360.00000000      42.26606907       1.42260550
      17.90000000      90.00000000     360.00000000      42.26611115       1.42260691
      18.00000000      90.00000000     360.00000000      42.26615323       1.42260833
      18.10000000      90.00000000     360.00000000      42.26619532       1.42260975
      18.20000000      90.00000000     360.00000000      42.26623741       1.42261116
      18.30000000      90.00000000     360.00000000      42.26627951       1.42261258
      18.40000000      90.00000000     360.00000000      42.26632161       1.42261400
      18.50000000      90.00000000     360.00000000      42.26636372       1.42261542
      18.60000000      90.00000000     360.00000000      42.26640583       1.42261683
      18.70000000      90.00000000     360.00000000      42.26644795       1.42261825
      18.80000000      90.00000000     360.00000000      42.26649007       1.42261967
      18.90000000      90.00000000     360.00000000      42.26653220       1.42262109
      19.00000000      90.00000000     360.00000000      42.26657433       1.42262250
      19.10000000      90.00000000     360.00000000      42.26661647       1.42262392
      19.20000000      90.00000000     360.00000000      42.26665862       1.42262534
      19.30000000      90.00000000     360.00000000      42.26670076       1.42262676
      19.40000000      90.00000000     360.00000000      42.26674292       1.42262818
      19.50000000      90.00000000     360.00000000      42.26678507       1.42262960
      19.60000000      90.00000000     360.00000000      42.26682724       1.42263102
      19.70000000      90.00000000     360.00000000      42.26686940       1.42263244
      19.80000000      90.00000000     360.00000000      42.26691158       1.42263386
      19.90000000      90.00000000     360.00000000      42.26695375       1.42263528
      20.00000000      90.00000000     360.00000000      42.26699594       1.42263670
      20.10000000      90.00000000     360.00000000      42.26703813       1.42263812
      20.20000000      90.00000000     360.00000000      42.26708032       1.42263954
      20.30000000      90.00000000     360.00000000      42.26712252       1.42264096
      20.40000000      90.00000000     360.00000000      42.26716472       1.42264238
      20.50000000      90.00000000     360.00000000      42.26720693       1.42264380
      20.60000000      90.00000000     360.00000000      42.26724914       1.42264522
      20.70000000      90.00000000     360.00000000      42.26729136       1.42264664
      20.80000000      90.00000000     360.00000000      42.26733358       1.42264806
      20.90000000      90.00000000     360.00000000      42.26737581       1.42264948
      21.00000000      90.00000000     360.00000000      42.26741804       1.42265090
      21.10000000      90.00000000     360.00000000      42.26746028       1.42265232
      21.20000000      90.00000000     360.00000000      42.26750252       1.42265375
      21.30000000      90.00000000     360.00000000      42.26754477       1.42265517
      21.40000000      90.00000000     360.00000000      42.26758703       1.42265659
      21.50000000      90.00000000     360.00000000      42.26762928       1.42265801
      21.60000000      90.00000000     360.00000000      42.26767155       1.42265944
      21.70000000      90.00000000     360.00000000      42.26771382       1.42266086
      21.80000000      90.00000000     360.00000000      42.26775609       1.42266228
      21.90000000      90.00000000     360.00000000      42.26779837       1.42266370
      22.00000000      90.00000000     360.00000000      42.26784065       1.42266513
      22.10000000      90.00000000     360.00000000      42.26788294       1.42266655
      22.20000000      90.00000000     360.00000000      42.26792523       1.42266797
      22.30000000      90.00000000     360.00000000      42.26796753       1.42266940
      22.40000000      90.00000000     360.00000000      42.26800983       1.42267082
      22.50000000      90.00000000     360.00000000      42.26805214       1.42267225
      22.60000000      90.00000000     360.00000000      42.26809446       1.42267367
      22.70000000      90.00000000     360.00000000      42.26813678       1.42267509
      22.80000000      90.00000000     360.00000000      42.26817910       1.42267652
      22.90000000      90.00000000     360.00000000      42.26822143       1.42267794
      23.00000000      90.00000000     360.00000000      42.26826376       1.42267937
