 # applied field (T), theta (degree), phi (degree), abs [muB/unitcell], abs [T]
       0.00000000       0.00000000       0.00000000      45.26332838       1.52348826
       0.10000000       0.34145064     360.00000000      45.26333061       1.52348833
       0.20000000       0.68290205     360.00000000      45.26333728       1.52348856
       0.30000000       1.08114545     360.00000000      45.26335022       1.52348899
       0.40000000       1.42260116     360.00000000      45.26336640       1.52348954
       0.50000000       1.76406007     360.00000000      45.26338705       1.52349023
       0.60000000       2.10552294     360.00000000      45.26341216       1.52349108
       0.70000000       2.50378379       0.00000000      45.26344603       1.52349222
       0.80000000       2.84525789       0.00000000      45.26348071       1.52349338
       0.90000000       3.18673838     360.00000000      45.26351990       1.52349470
       1.00000000       3.52822603       0.00000000      45.26356361       1.52349617
       1.10000000       3.92651988     360.00000000      45.26361862       1.52349802
       1.20000000       4.26802566     360.00000000      45.26367202       1.52349982
       1.30000000       4.60954101     360.00000000      45.26372999       1.52350177
       1.40000000       5.00787030       0.00000000      45.26380125       1.52350417
       1.50000000       5.34940902     360.00000000      45.26386905       1.52350645
       1.60000000       5.69095971     360.00000000      45.26394148       1.52350889
       1.70000000       6.08933334     360.00000000      45.26402924       1.52351185
       1.80000000       6.43091260     360.00000000      45.26411165       1.52351462
       1.90000000       6.77250622     360.00000000      45.26419878       1.52351755
       2.00000000       7.17093305     360.00000000      45.26430332       1.52352107
       2.10000000       7.51256039     360.00000000      45.26440061       1.52352434
       2.20000000       7.91102870     360.00000000      45.26451677       1.52352825
       2.30000000       8.25269328     360.00000000      45.26462435       1.52353188
       2.40000000       8.65120715     360.00000000      45.26475230       1.52353618
       2.50000000       8.99291246     360.00000000      45.26487031       1.52354015
       2.60000000       9.39147595     360.00000000      45.26501022       1.52354486
       2.70000000       9.73322545     360.00000000      45.26513881       1.52354919
       2.80000000      10.13184259     360.00000000      45.26529085       1.52355431
       2.90000000      10.53049031     360.00000000      45.26544942       1.52355965
       3.00000000      10.87231448     360.00000000      45.26559452       1.52356453
       3.10000000      11.27102197     360.00000000      45.26576549       1.52357028
       3.20000000      11.66976330     360.00000000      45.26594315       1.52357626
       3.30000000      12.01167014     360.00000000      45.26610511       1.52358172
       3.40000000      12.41047727     360.00000000      45.26629545       1.52358812
       3.50000000      12.80932145     360.00000000      45.26649262       1.52359476
       3.60000000      13.20820379     360.00000000      45.26669666       1.52360163
       3.70000000      13.60712539     360.00000000      45.26690763       1.52360873
       3.80000000      14.00608734     360.00000000      45.26712557       1.52361606
       3.90000000      14.40509072     360.00000000      45.26735052       1.52362363
       4.00000000      14.80413659     360.00000000      45.26758253       1.52363144
       4.10000000      15.26014223     360.00000000      45.26785104       1.52364048
       4.20000000      15.65928277     360.00000000      45.26809817       1.52364880
       4.30000000      16.05846908     360.00000000      45.26835248       1.52365736
       4.40000000      16.51463945     360.00000000      45.26864622       1.52366725
       4.50000000      16.91392732     360.00000000      45.26891587       1.52367632
       4.60000000      17.37021656     360.00000000      45.26922696       1.52368679
       4.70000000      17.76961051     360.00000000      45.26951204       1.52369639
       4.80000000      18.22602370     360.00000000      45.26984058       1.52370745
       4.90000000      18.68250507     360.00000000      45.27017838       1.52371882
       5.00000000      19.13905598     360.00000000      45.27052545       1.52373050
       5.10000000      19.59567777     360.00000000      45.27088180       1.52374249
       5.20000000      20.05237172     360.00000000      45.27124739       1.52375480
       5.30000000      20.50913910     360.00000000      45.27162220       1.52376741
       5.40000000      21.02300535     360.00000000      45.27204883       1.52378177
       5.50000000      21.47993288     360.00000000      45.27244302       1.52379504
       5.60000000      21.99398253     360.00000000      45.27289110       1.52381012
       5.70000000      22.50813162     360.00000000      45.27335035       1.52382558
       5.80000000      23.02238162     360.00000000      45.27382065       1.52384141
       5.90000000      23.53673396     360.00000000      45.27430185       1.52385760
       6.00000000      24.10828231     360.00000000      45.27484324       1.52387583
       6.10000000      24.67996068     360.00000000      45.27539745       1.52389448
       6.20000000      25.25177065     360.00000000      45.27596418       1.52391356
       6.30000000      25.82371362     360.00000000      45.27654310       1.52393304
       6.40000000      26.45293851     360.00000000      45.27718800       1.52395475
       6.50000000      27.08232781     360.00000000      45.27784651       1.52397691
       6.60000000      27.76906231     360.00000000      45.27857457       1.52400142
       6.70000000      28.45599576     360.00000000      45.27931715       1.52402641
       6.80000000      29.20034382     360.00000000      45.28013209       1.52405384
       6.90000000      90.00000000     360.00000000      45.30005046       1.52472426
       7.00000000      90.00000000     360.00000000      45.30009888       1.52472589
       7.10000000      90.00000000     360.00000000      45.30014730       1.52472752
       7.20000000      90.00000000     360.00000000      45.30019573       1.52472915
       7.30000000      90.00000000     360.00000000      45.30024417       1.52473078
       7.40000000      90.00000000     360.00000000      45.30029261       1.52473241
       7.50000000      90.00000000     360.00000000      45.30034105       1.52473404
       7.60000000      90.00000000     360.00000000      45.30038950       1.52473567
       7.70000000      90.00000000     360.00000000      45.30043796       1.52473730
       7.80000000      90.00000000     360.00000000      45.30048642       1.52473893
       7.90000000      90.00000000     360.00000000      45.30053488       1.52474056
       8.00000000      90.00000000     360.00000000      45.30058335       1.52474220
       8.10000000      90.00000000     360.00000000      45.30063183       1.52474383
       8.20000000      90.00000000     360.00000000      45.30068031       1.52474546
       8.30000000      90.00000000     360.00000000      45.30072879       1.52474709
       8.40000000      90.00000000     360.00000000      45.30077728       1.52474872
       8.50000000      90.00000000     360.00000000      45.30082578       1.52475036
       8.60000000      90.00000000     360.00000000      45.30087428       1.52475199
       8.70000000      90.00000000     360.00000000      45.30092278       1.52475362
       8.80000000      90.00000000     360.00000000      45.30097129       1.52475525
       8.90000000      90.00000000     360.00000000      45.30101981       1.52475689
       9.00000000      90.00000000     360.00000000      45.30106833       1.52475852
       9.10000000      90.00000000     360.00000000      45.30111686       1.52476015
       9.20000000      90.00000000     360.00000000      45.30116539       1.52476179
       9.30000000      90.00000000     360.00000000      45.30121392       1.52476342
       9.40000000      90.00000000     360.00000000      45.30126246       1.52476505
       9.50000000      90.00000000     360.00000000      45.30131101       1.52476669
       9.60000000      90.00000000     360.00000000      45.30135956       1.52476832
       9.70000000      90.00000000     360.00000000      45.30140812       1.52476996
       9.80000000      90.00000000     360.00000000      45.30145668       1.52477159
       9.90000000      90.00000000     360.00000000      45.30150524       1.52477323
      10.00000000      90.00000000     360.00000000      45.30155381       1.52477486
      10.10000000      90.00000000     360.00000000      45.30160239       1.52477649
      10.20000000      90.00000000     360.00000000      45.30165097       1.52477813
      10.30000000      90.00000000     360.00000000      45.30169956       1.52477977
      10.40000000      90.00000000     360.00000000      45.30174815       1.52478140
      10.50000000      90.00000000     360.00000000      45.30179674       1.52478304
      10.60000000      90.00000000     360.00000000      45.30184535       1.52478467
      10.70000000      90.00000000     360.00000000      45.30189395       1.52478631
      10.80000000      90.00000000     360.00000000      45.30194256       1.52478794
      10.90000000      90.00000000     360.00000000      45.30199118       1.52478958
      11.00000000      90.00000000     360.00000000      45.30203980       1.52479122
      11.10000000      90.00000000     360.00000000      45.30208843       1.52479285
      11.20000000      90.00000000     360.00000000      45.30213706       1.52479449
      11.30000000      90.00000000     360.00000000      45.30218570       1.52479613
      11.40000000      90.00000000     360.00000000      45.30223434       1.52479777
      11.50000000      90.00000000     360.00000000      45.30228299       1.52479940
      11.60000000      90.00000000     360.00000000      45.30233164       1.52480104
      11.70000000      90.00000000     360.00000000      45.30238030       1.52480268
      11.80000000      90.00000000     360.00000000      45.30242896       1.52480432
      11.90000000      90.00000000     360.00000000      45.30247763       1.52480595
      12.00000000      90.00000000     360.00000000      45.30252630       1.52480759
      12.10000000      90.00000000     360.00000000      45.30257498       1.52480923
      12.20000000      90.00000000     360.00000000      45.30262366       1.52481087
      12.30000000      90.00000000     360.00000000      45.30267235       1.52481251
      12.40000000      90.00000000     360.00000000      45.30272104       1.52481415
      12.50000000      90.00000000     360.00000000      45.30276974       1.52481579
      12.60000000      90.00000000     360.00000000      45.30281844       1.52481743
      12.70000000      90.00000000     360.00000000      45.30286715       1.52481906
      12.80000000      90.00000000     360.00000000      45.30291587       1.52482070
      12.90000000      90.00000000     360.00000000      45.30296458       1.52482234
      13.00000000      90.00000000     360.00000000      45.30301331       1.52482398
      13.10000000      90.00000000     360.00000000      45.30306204       1.52482562
      13.20000000      90.00000000     360.00000000      45.30311077       1.52482726
      13.30000000      90.00000000     360.00000000      45.30315951       1.52482891
      13.40000000      90.00000000     360.00000000      45.30320825       1.52483055
      13.50000000      90.00000000     360.00000000      45.30325700       1.52483219
      13.60000000      90.00000000     360.00000000      45.30330576       1.52483383
      13.70000000      90.00000000     360.00000000      45.30335452       1.52483547
      13.80000000      90.00000000     360.00000000      45.30340328       1.52483711
      13.90000000      90.00000000     360.00000000      45.30345205       1.52483875
      14.00000000      90.00000000     360.00000000      45.30350083       1.52484039
      14.10000000      90.00000000     360.00000000      45.30354961       1.52484204
      14.20000000      90.00000000     360.00000000      45.30359839       1.52484368
      14.30000000      90.00000000     360.00000000      45.30364718       1.52484532
      14.40000000      90.00000000     360.00000000      45.30369598       1.52484696
      14.50000000      90.00000000     360.00000000      45.30374478       1.52484860
      14.60000000      90.00000000     360.00000000      45.30379358       1.52485025
      14.70000000      90.00000000     360.00000000      45.30384239       1.52485189
      14.80000000      90.00000000     360.00000000      45.30389121       1.52485353
      14.90000000      90.00000000     360.00000000      45.30394003       1.52485518
      15.00000000      90.00000000     360.00000000      45.30398886       1.52485682
      15.10000000      90.00000000     360.00000000      45.30403769       1.52485846
      15.20000000      90.00000000     360.00000000      45.30408652       1.52486011
      15.30000000      90.00000000     360.00000000      45.30413537       1.52486175
      15.40000000      90.00000000     360.00000000      45.30418421       1.52486339
      15.50000000      90.00000000     360.00000000      45.30423307       1.52486504
      15.60000000      90.00000000     360.00000000      45.30428192       1.52486668
      15.70000000      90.00000000     360.00000000      45.30433078       1.52486833
      15.80000000      90.00000000     360.00000000      45.30437965       1.52486997
      15.90000000      90.00000000     360.00000000      45.30442852       1.52487162
      16.00000000      90.00000000     360.00000000      45.30447740       1.52487326
      16.10000000      90.00000000     360.00000000      45.30452629       1.52487491
      16.20000000      90.00000000     360.00000000      45.30457517       1.52487655
      16.30000000      90.00000000     360.00000000      45.30462407       1.52487820
      16.40000000      90.00000000     360.00000000      45.30467296       1.52487985
      16.50000000      90.00000000     360.00000000      45.30472187       1.52488149
      16.60000000      90.00000000     360.00000000      45.30477078       1.52488314
      16.70000000      90.00000000     360.00000000      45.30481969       1.52488478
      16.80000000      90.00000000     360.00000000      45.30486861       1.52488643
      16.90000000      90.00000000     360.00000000      45.30491753       1.52488808
      17.00000000      90.00000000     360.00000000      45.30496646       1.52488972
      17.10000000      90.00000000     360.00000000      45.30501540       1.52489137
      17.20000000      90.00000000     360.00000000      45.30506434       1.52489302
      17.30000000      90.00000000     360.00000000      45.30511328       1.52489467
      17.40000000      90.00000000     360.00000000      45.30516223       1.52489631
      17.50000000      90.00000000     360.00000000      45.30521119       1.52489796
      17.60000000      90.00000000     360.00000000      45.30526015       1.52489961
      17.70000000      90.00000000     360.00000000      45.30530911       1.52490126
      17.80000000      90.00000000     360.00000000      45.30535809       1.52490291
      17.90000000      90.00000000     360.00000000      45.30540706       1.52490455
      18.00000000      90.00000000     360.00000000      45.30545604       1.52490620
      18.10000000      90.00000000     360.00000000      45.30550503       1.52490785
      18.20000000      90.00000000     360.00000000      45.30555402       1.52490950
      18.30000000      90.00000000     360.00000000      45.30560302       1.52491115
      18.40000000      90.00000000     360.00000000      45.30565202       1.52491280
      18.50000000      90.00000000     360.00000000      45.30570103       1.52491445
      18.60000000      90.00000000     360.00000000      45.30575004       1.52491610
      18.70000000      90.00000000     360.00000000      45.30579906       1.52491775
      18.80000000      90.00000000     360.00000000      45.30584808       1.52491940
      18.90000000      90.00000000     360.00000000      45.30589711       1.52492105
      19.00000000      90.00000000     360.00000000      45.30594614       1.52492270
      19.10000000      90.00000000     360.00000000      45.30599518       1.52492435
      19.20000000      90.00000000     360.00000000      45.30604422       1.52492600
      19.30000000      90.00000000     360.00000000      45.30609327       1.52492765
      19.40000000      90.00000000     360.00000000      45.30614232       1.52492930
      19.50000000      90.00000000     360.00000000      45.30619138       1.52493095
      19.60000000      90.00000000     360.00000000      45.30624045       1.52493260
      19.70000000      90.00000000     360.00000000      45.30628952       1.52493426
      19.80000000      90.00000000     360.00000000      45.30633859       1.52493591
      19.90000000      90.00000000     360.00000000      45.30638767       1.52493756
      20.00000000      90.00000000     360.00000000      45.30643676       1.52493921
      20.10000000      90.00000000     360.00000000      45.30648585       1.52494086
      20.20000000      90.00000000     360.00000000      45.30653494       1.52494252
      20.30000000      90.00000000     360.00000000      45.30658405       1.52494417
      20.40000000      90.00000000     360.00000000      45.30663315       1.52494582
      20.50000000      90.00000000     360.00000000      45.30668226       1.52494748
      20.60000000      90.00000000     360.00000000      45.30673138       1.52494913
      20.70000000      90.00000000     360.00000000      45.30678050       1.52495078
      20.80000000      90.00000000     360.00000000      45.30682963       1.52495244
      20.90000000      90.00000000     360.00000000      45.30687876       1.52495409
      21.00000000      90.00000000     360.00000000      45.30692790       1.52495574
      21.10000000      90.00000000     360.00000000      45.30697704       1.52495740
      21.20000000      90.00000000     360.00000000      45.30702619       1.52495905
      21.30000000      90.00000000     360.00000000      45.30707534       1.52496071
      21.40000000      90.00000000     360.00000000      45.30712450       1.52496236
      21.50000000      90.00000000     360.00000000      45.30717367       1.52496401
      21.60000000      90.00000000     360.00000000      45.30722283       1.52496567
      21.70000000      90.00000000     360.00000000      45.30727201       1.52496732
      21.80000000      90.00000000     360.00000000      45.30732119       1.52496898
      21.90000000      90.00000000     360.00000000      45.30737037       1.52497064
      22.00000000      90.00000000     360.00000000      45.30741956       1.52497229
      22.10000000      90.00000000     360.00000000      45.30746876       1.52497395
      22.20000000      90.00000000     360.00000000      45.30751796       1.52497560
      22.30000000      90.00000000     360.00000000      45.30756717       1.52497726
      22.40000000      90.00000000     360.00000000      45.30761638       1.52497892
      22.50000000      90.00000000     360.00000000      45.30766559       1.52498057
      22.60000000      90.00000000     360.00000000      45.30771481       1.52498223
      22.70000000      90.00000000     360.00000000      45.30776404       1.52498389
      22.80000000      90.00000000     360.00000000      45.30781327       1.52498554
      22.90000000      90.00000000     360.00000000      45.30786251       1.52498720
      23.00000000      90.00000000     360.00000000      45.30791175       1.52498886
