 # applied field (T), theta (degree), phi (degree), abs for RE 1-2
     0.00000     1.58944   135.00000     0.30293     1.58944    45.00000     0.30293
     0.10000     1.41946   130.26263     0.30299     1.76695    41.19952     0.30288
     0.20000     1.26053   124.27203     0.30306     1.94965    38.10118     0.30284
     0.30000     1.11797   116.63186     0.30313     2.13603    35.53473     0.30280
     0.40000     0.99962   106.93717     0.30320     2.32505    33.37687     0.30277
     0.50000     0.91586    95.00839     0.30328     2.51602    31.53756     0.30274
     0.60000     0.87774    81.30264     0.30337     2.70846    29.95019     0.30272
     0.70000     0.89233    67.12032     0.30347     2.90205    28.56481     0.30271
     0.80000     0.95840    54.04235     0.30357     3.09657    27.34342     0.30271
     0.90000     1.06759    43.03799     0.30368     3.29190    26.25671     0.30271
     1.00000     1.20935    34.24899     0.30379     3.48793    25.28177     0.30272
     1.10000     1.37467    27.36014     0.30391     3.68463    24.40049     0.30273
     1.20000     1.55703    21.95326     0.30403     3.88198    23.59839     0.30275
     1.30000     1.75203    17.66213     0.30416     4.07999    22.86374     0.30278
     1.40000     1.95677    14.20569     0.30430     4.27868    22.18702     0.30281
     1.50000     2.16932    11.37814     0.30444     4.47810    21.56035     0.30286
     1.60000     2.38839     9.03052     0.30458     4.67830    20.97723     0.30290
     1.70000     2.61311     7.05467     0.30473     4.87932    20.43221     0.30296
     1.80000     2.84286     5.37117     0.30489     5.08125    19.92071     0.30302
     1.90000     3.07724     3.92094     0.30505     5.28414    19.43887     0.30308
     2.00000     3.34284     2.49906     0.30524     5.51013    18.94545     0.30317
     2.10000     3.58627     1.40903     0.30541     5.71533    18.51518     0.30324
     2.20000     3.83368     0.44431     0.30559     5.92175    18.10584     0.30333
     2.30000     4.08500   359.58460     0.30577     6.12947    17.71534     0.30342
     2.40000     4.36938   358.70867     0.30598     6.36134    17.30972     0.30353
     2.50000     4.62890   358.02254     0.30617     6.57211    16.95285     0.30364
     2.60000     4.92264   357.31300     0.30639     6.80769    16.57986     0.30377
     2.70000     5.19033   356.75327     0.30659     7.02190    16.25074     0.30388
     2.80000     5.49345   356.16717     0.30682     7.26165    15.90487     0.30402
     2.90000     5.76937   355.70238     0.30702     7.47972    15.59905     0.30415
     3.00000     6.08198   355.21047     0.30726     7.72409    15.27610     0.30431
     3.10000     6.39973   354.75985     0.30751     7.97111    14.96365     0.30447
     3.20000     6.68852   354.40057     0.30772     8.19586    14.68692     0.30461
     3.30000     7.01602   354.01511     0.30797     8.44822    14.39281     0.30479
     3.40000     7.34880   353.65895     0.30823     8.70360    14.10726     0.30497
     3.50000     7.68693   353.32904     0.30848     8.96214    13.82976     0.30515
     3.60000     8.03045   353.02277     0.30874     9.22395    13.55986     0.30535
     3.70000     8.41698   352.69851     0.30904     9.51626    13.27358     0.30557
     3.80000     8.77214   352.43529     0.30930     9.78546    13.01816     0.30577
     3.90000     9.13286   352.18950     0.30957    10.05831    12.76929     0.30598
     4.00000     9.53897   351.92694     0.30988    10.36350    12.50431     0.30623
     4.10000     9.91164   351.71343     0.31015    10.64452    12.26813     0.30645
     4.20000    10.33134   351.48414     0.31046    10.95920    12.01617     0.30670
     4.30000    10.75831   351.27028     0.31077    11.27914    11.77061     0.30696
     4.40000    11.19261   351.07055     0.31108    11.60448    11.53127     0.30723
     4.50000    11.63426   350.88378     0.31139    11.93538    11.29800     0.30750
     4.60000    12.08330   350.70891     0.31170    12.27199    11.07067     0.30777
     4.70000    12.58535   350.52356     0.31205    12.64732    10.82956     0.30808
     4.80000    13.09662   350.35079     0.31240    13.03008    10.59498     0.30840
     4.90000    13.61709   350.18958     0.31275    13.42043    10.36687     0.30872
     5.00000    14.14678   350.03897     0.31309    13.81855    10.14514     0.30905
     5.10000    14.68566   349.89815     0.31344    14.22460     9.92974     0.30937
     5.20000    15.28410   349.75055     0.31382    14.67569     9.70319     0.30974
     5.30000    15.89361   349.61311     0.31419    15.13678     9.48379     0.31011
     5.40000    16.51411   349.48501     0.31456    15.60806     9.27149     0.31048
     5.50000    17.19903   349.35246     0.31497    16.12959     9.05037     0.31088
     5.60000    17.89681   349.22938     0.31536    16.66368     8.83732     0.31129
     5.70000    18.66303   349.10361     0.31579    17.25266     8.61753     0.31173
     5.80000    19.44389   348.98721     0.31621    17.85684     8.40690     0.31218
     5.90000    20.29719   348.86950     0.31665    18.52104     8.19185     0.31265
     6.00000    21.22606   348.75176     0.31711    19.24936     7.97424     0.31316
     6.10000    22.23364   348.63509     0.31759    20.04624     7.75608     0.31369
     6.20000    87.58284   349.12131     0.32414    92.41716    10.87869     0.32414
     6.30000    87.58371   349.12492     0.32416    92.41629    10.87508     0.32416
     6.40000    87.58457   349.12853     0.32418    92.41543    10.87147     0.32418
     6.50000    87.58544   349.13214     0.32420    92.41456    10.86786     0.32420
     6.60000    87.58630   349.13574     0.32422    92.41370    10.86426     0.32422
     6.70000    87.58716   349.13935     0.32424    92.41284    10.86065     0.32424
     6.80000    87.58803   349.14295     0.32426    92.41197    10.85705     0.32426
     6.90000    87.58889   349.14656     0.32428    92.41111    10.85344     0.32428
     7.00000    87.58975   349.15016     0.32430    92.41025    10.84984     0.32430
     7.10000    87.59061   349.15376     0.32431    92.40939    10.84624     0.32431
     7.20000    87.59148   349.15736     0.32433    92.40852    10.84264     0.32433
     7.30000    87.59234   349.16096     0.32435    92.40766    10.83904     0.32435
     7.40000    87.59320   349.16455     0.32437    92.40680    10.83545     0.32437
     7.50000    87.59406   349.16815     0.32439    92.40594    10.83185     0.32439
     7.60000    87.59492   349.17175     0.32441    92.40508    10.82825     0.32441
     7.70000    87.59578   349.17534     0.32443    92.40422    10.82466     0.32443
     7.80000    87.59664   349.17893     0.32445    92.40336    10.82107     0.32445
     7.90000    87.59750   349.18252     0.32447    92.40250    10.81748     0.32447
     8.00000    87.59836   349.18611     0.32449    92.40164    10.81389     0.32449
     8.10000    87.59922   349.18970     0.32451    92.40078    10.81030     0.32451
     8.20000    87.60008   349.19329     0.32453    92.39992    10.80671     0.32453
     8.30000    87.60094   349.19688     0.32455    92.39906    10.80312     0.32455
     8.40000    87.60179   349.20046     0.32457    92.39821    10.79954     0.32457
     8.50000    87.60265   349.20405     0.32459    92.39735    10.79595     0.32459
     8.60000    87.60351   349.20763     0.32461    92.39649    10.79237     0.32461
     8.70000    87.60437   349.21121     0.32463    92.39563    10.78879     0.32463
     8.80000    87.60523   349.21480     0.32465    92.39477    10.78520     0.32465
     8.90000    87.60608   349.21838     0.32467    92.39392    10.78162     0.32467
     9.00000    87.60694   349.22195     0.32469    92.39306    10.77805     0.32469
     9.10000    87.60780   349.22553     0.32471    92.39220    10.77447     0.32471
     9.20000    87.60865   349.22911     0.32472    92.39135    10.77089     0.32472
     9.30000    87.60951   349.23269     0.32474    92.39049    10.76731     0.32474
     9.40000    87.61036   349.23626     0.32476    92.38964    10.76374     0.32476
     9.50000    87.61122   349.23983     0.32478    92.38878    10.76017     0.32478
     9.60000    87.61207   349.24341     0.32480    92.38793    10.75659     0.32480
     9.70000    87.61293   349.24698     0.32482    92.38707    10.75302     0.32482
     9.80000    87.61378   349.25055     0.32484    92.38622    10.74945     0.32484
     9.90000    87.61464   349.25411     0.32486    92.38536    10.74589     0.32486
    10.00000    87.61549   349.25768     0.32488    92.38451    10.74232     0.32488
    10.10000    87.61634   349.26125     0.32490    92.38366    10.73875     0.32490
    10.20000    87.61720   349.26481     0.32492    92.38280    10.73519     0.32492
    10.30000    87.61805   349.26838     0.32494    92.38195    10.73162     0.32494
    10.40000    87.61890   349.27194     0.32496    92.38110    10.72806     0.32496
    10.50000    87.61976   349.27550     0.32498    92.38024    10.72450     0.32498
    10.60000    87.62061   349.27906     0.32500    92.37939    10.72094     0.32500
    10.70000    87.62146   349.28262     0.32502    92.37854    10.71738     0.32502
    10.80000    87.62231   349.28618     0.32504    92.37769    10.71382     0.32504
    10.90000    87.62316   349.28974     0.32506    92.37684    10.71026     0.32506
    11.00000    87.62401   349.29330     0.32508    92.37599    10.70670     0.32508
    11.10000    87.62486   349.29685     0.32510    92.37514    10.70315     0.32510
    11.20000    87.62571   349.30041     0.32512    92.37429    10.69959     0.32512
    11.30000    87.62656   349.30396     0.32514    92.37344    10.69604     0.32514
    11.40000    87.62741   349.30751     0.32516    92.37259    10.69249     0.32516
    11.50000    87.62826   349.31106     0.32518    92.37174    10.68894     0.32518
    11.60000    87.62911   349.31461     0.32520    92.37089    10.68539     0.32520
    11.70000    87.62996   349.31816     0.32522    92.37004    10.68184     0.32522
    11.80000    87.63081   349.32171     0.32524    92.36919    10.67829     0.32524
    11.90000    87.63166   349.32525     0.32525    92.36834    10.67475     0.32525
    12.00000    87.63251   349.32880     0.32527    92.36749    10.67120     0.32527
    12.10000    87.63336   349.33234     0.32529    92.36664    10.66766     0.32529
    12.20000    87.63420   349.33589     0.32531    92.36580    10.66411     0.32531
    12.30000    87.63505   349.33943     0.32533    92.36495    10.66057     0.32533
    12.40000    87.63590   349.34297     0.32535    92.36410    10.65703     0.32535
    12.50000    87.63674   349.34651     0.32537    92.36326    10.65349     0.32537
    12.60000    87.63759   349.35005     0.32539    92.36241    10.64995     0.32539
    12.70000    87.63844   349.35358     0.32541    92.36156    10.64642     0.32541
    12.80000    87.63928   349.35712     0.32543    92.36072    10.64288     0.32543
    12.90000    87.64013   349.36066     0.32545    92.35987    10.63934     0.32545
    13.00000    87.64097   349.36419     0.32547    92.35903    10.63581     0.32547
    13.10000    87.64182   349.36772     0.32549    92.35818    10.63228     0.32549
    13.20000    87.64266   349.37125     0.32551    92.35734    10.62875     0.32551
    13.30000    87.64351   349.37479     0.32553    92.35649    10.62521     0.32553
    13.40000    87.64435   349.37831     0.32555    92.35565    10.62169     0.32555
    13.50000    87.64520   349.38184     0.32557    92.35480    10.61816     0.32557
    13.60000    87.64604   349.38537     0.32559    92.35396    10.61463     0.32559
    13.70000    87.64688   349.38890     0.32561    92.35312    10.61110     0.32561
    13.80000    87.64773   349.39242     0.32563    92.35227    10.60758     0.32563
    13.90000    87.64857   349.39595     0.32565    92.35143    10.60405     0.32565
    14.00000    87.64941   349.39947     0.32567    92.35059    10.60053     0.32567
    14.10000    87.65025   349.40299     0.32569    92.34975    10.59701     0.32569
    14.20000    87.65110   349.40651     0.32571    92.34890    10.59349     0.32571
    14.30000    87.65194   349.41003     0.32573    92.34806    10.58997     0.32573
    14.40000    87.65278   349.41355     0.32575    92.34722    10.58645     0.32575
    14.50000    87.65362   349.41707     0.32577    92.34638    10.58293     0.32577
    14.60000    87.65446   349.42058     0.32579    92.34554    10.57942     0.32579
    14.70000    87.65530   349.42410     0.32581    92.34470    10.57590     0.32581
    14.80000    87.65614   349.42761     0.32583    92.34386    10.57239     0.32583
    14.90000    87.65698   349.43113     0.32585    92.34302    10.56887     0.32585
    15.00000    87.65782   349.43464     0.32587    92.34218    10.56536     0.32587
    15.10000    87.65866   349.43815     0.32589    92.34134    10.56185     0.32589
    15.20000    87.65950   349.44166     0.32591    92.34050    10.55834     0.32591
    15.30000    87.66034   349.44517     0.32593    92.33966    10.55483     0.32593
    15.40000    87.66118   349.44867     0.32595    92.33882    10.55133     0.32595
    15.50000    87.66202   349.45218     0.32597    92.33798    10.54782     0.32597
    15.60000    87.66286   349.45568     0.32599    92.33714    10.54432     0.32599
    15.70000    87.66369   349.45919     0.32601    92.33631    10.54081     0.32601
    15.80000    87.66453   349.46269     0.32603    92.33547    10.53731     0.32603
    15.90000    87.66537   349.46619     0.32605    92.33463    10.53381     0.32605
    16.00000    87.66621   349.46969     0.32607    92.33379    10.53031     0.32607
    16.10000    87.66704   349.47319     0.32609    92.33296    10.52681     0.32609
    16.20000    87.66788   349.47669     0.32611    92.33212    10.52331     0.32611
    16.30000    87.66872   349.48019     0.32613    92.33128    10.51981     0.32613
    16.40000    87.66955   349.48369     0.32615    92.33045    10.51631     0.32615
    16.50000    87.67039   349.48718     0.32617    92.32961    10.51282     0.32617
    16.60000    87.67122   349.49068     0.32619    92.32878    10.50932     0.32619
    16.70000    87.67206   349.49417     0.32620    92.32794    10.50583     0.32620
    16.80000    87.67289   349.49766     0.32622    92.32711    10.50234     0.32622
    16.90000    87.67373   349.50115     0.32624    92.32627    10.49885     0.32624
    17.00000    87.67456   349.50464     0.32626    92.32544    10.49536     0.32626
    17.10000    87.67540   349.50813     0.32628    92.32460    10.49187     0.32628
    17.20000    87.67623   349.51162     0.32630    92.32377    10.48838     0.32630
    17.30000    87.67706   349.51510     0.32632    92.32294    10.48490     0.32632
    17.40000    87.67790   349.51859     0.32634    92.32210    10.48141     0.32634
    17.50000    87.67873   349.52207     0.32636    92.32127    10.47793     0.32636
    17.60000    87.67956   349.52556     0.32638    92.32044    10.47444     0.32638
    17.70000    87.68039   349.52904     0.32640    92.31961    10.47096     0.32640
    17.80000    87.68123   349.53252     0.32642    92.31877    10.46748     0.32642
    17.90000    87.68206   349.53600     0.32644    92.31794    10.46400     0.32644
    18.00000    87.68289   349.53948     0.32646    92.31711    10.46052     0.32646
    18.10000    87.68372   349.54296     0.32648    92.31628    10.45704     0.32648
    18.20000    87.68455   349.54643     0.32650    92.31545    10.45357     0.32650
    18.30000    87.68538   349.54991     0.32652    92.31462    10.45009     0.32652
    18.40000    87.68621   349.55338     0.32654    92.31379    10.44662     0.32654
    18.50000    87.68704   349.55686     0.32656    92.31296    10.44314     0.32656
    18.60000    87.68787   349.56033     0.32658    92.31213    10.43967     0.32658
    18.70000    87.68870   349.56380     0.32660    92.31130    10.43620     0.32660
    18.80000    87.68953   349.56727     0.32662    92.31047    10.43273     0.32662
    18.90000    87.69036   349.57074     0.32664    92.30964    10.42926     0.32664
    19.00000    87.69119   349.57421     0.32666    92.30881    10.42579     0.32666
    19.10000    87.69202   349.57768     0.32668    92.30798    10.42232     0.32668
    19.20000    87.69285   349.58114     0.32670    92.30715    10.41886     0.32670
    19.30000    87.69368   349.58461     0.32672    92.30632    10.41539     0.32672
    19.40000    87.69450   349.58807     0.32674    92.30550    10.41193     0.32674
    19.50000    87.69533   349.59153     0.32676    92.30467    10.40847     0.32676
    19.60000    87.69616   349.59499     0.32678    92.30384    10.40501     0.32678
    19.70000    87.69698   349.59845     0.32680    92.30302    10.40155     0.32680
    19.80000    87.69781   349.60191     0.32682    92.30219    10.39809     0.32682
    19.90000    87.69864   349.60537     0.32684    92.30136    10.39463     0.32684
    20.00000    87.69946   349.60883     0.32686    92.30054    10.39117     0.32686
    20.10000    87.70029   349.61228     0.32688    92.29971    10.38772     0.32688
    20.20000    87.70112   349.61574     0.32690    92.29888    10.38426     0.32690
    20.30000    87.70194   349.61919     0.32692    92.29806    10.38081     0.32692
    20.40000    87.70277   349.62265     0.32694    92.29723    10.37735     0.32694
    20.50000    87.70359   349.62610     0.32696    92.29641    10.37390     0.32696
    20.60000    87.70441   349.62955     0.32698    92.29559    10.37045     0.32698
    20.70000    87.70524   349.63300     0.32700    92.29476    10.36700     0.32700
    20.80000    87.70606   349.63645     0.32702    92.29394    10.36355     0.32702
    20.90000    87.70689   349.63989     0.32704    92.29311    10.36011     0.32704
    21.00000    87.70771   349.64334     0.32706    92.29229    10.35666     0.32706
    21.10000    87.70853   349.64679     0.32708    92.29147    10.35321     0.32708
    21.20000    87.70936   349.65023     0.32710    92.29064    10.34977     0.32710
    21.30000    87.71018   349.65367     0.32712    92.28982    10.34633     0.32712
    21.40000    87.71100   349.65712     0.32714    92.28900    10.34288     0.32714
    21.50000    87.71182   349.66056     0.32717    92.28818    10.33944     0.32717
    21.60000    87.71264   349.66400     0.32719    92.28736    10.33600     0.32719
    21.70000    87.71347   349.66744     0.32721    92.28653    10.33256     0.32721
    21.80000    87.71429   349.67087     0.32723    92.28571    10.32913     0.32723
    21.90000    87.71511   349.67431     0.32725    92.28489    10.32569     0.32725
    22.00000    87.71593   349.67775     0.32727    92.28407    10.32225     0.32727
    22.10000    87.71675   349.68118     0.32729    92.28325    10.31882     0.32729
    22.20000    87.71757   349.68461     0.32731    92.28243    10.31539     0.32731
    22.30000    87.71839   349.68805     0.32733    92.28161    10.31195     0.32733
    22.40000    87.71921   349.69148     0.32735    92.28079    10.30852     0.32735
    22.50000    87.72003   349.69491     0.32737    92.27997    10.30509     0.32737
    22.60000    87.72085   349.69834     0.32739    92.27915    10.30166     0.32739
    22.70000    87.72167   349.70176     0.32741    92.27833    10.29824     0.32741
    22.80000    87.72249   349.70519     0.32743    92.27751    10.29481     0.32743
    22.90000    87.72330   349.70862     0.32745    92.27670    10.29138     0.32745
    23.00000    87.72412   349.71204     0.32747    92.27588    10.28796     0.32747
    23.10000    87.72494   349.71547     0.32749    92.27506    10.28453     0.32749
    23.20000    87.72576   349.71889     0.32751    92.27424    10.28111     0.32751
    23.30000    87.72657   349.72231     0.32753    92.27343    10.27769     0.32753
