 # applied field (T), theta (degree), phi (degree), abs for RE 1-2
     0.00000   179.61876   315.00000     4.39350   179.61876   225.00000     4.39350
     0.10000   179.72659   253.22452     4.39338   179.32279   204.16365     4.39361
     0.20000   179.50274   210.69131     4.39325   178.99292   196.42064     4.39370
     0.30000   179.18553   197.55586     4.39312   178.65395   192.52917     4.39379
     0.40000   178.84954   191.90699     4.39297   178.31143   190.20514     4.39387
     0.50000   178.50719   188.81986     4.39282   177.96720   188.66272     4.39394
     0.60000   178.16186   186.88145     4.39265   177.62202   187.56423     4.39399
     0.70000   177.81479   185.55177     4.39248   177.27627   186.74147     4.39404
     0.80000   177.46656   184.58229     4.39229   176.93014   186.10151     4.39408
     0.90000   177.11743   183.84320     4.39210   176.58374   185.58890     4.39411
     1.00000   176.76756   183.26024     4.39189   176.23713   185.16854     4.39413
     1.10000   176.41704   182.78790     4.39168   175.89034   184.81714     4.39413
     1.20000   176.06590   182.39676     4.39146   175.54339   184.51862     4.39413
     1.30000   175.71419   182.06697     4.39123   175.19629   184.26156     4.39412
     1.40000   175.36190   181.78465     4.39099   174.84902   184.03761     4.39410
     1.50000   175.00904   181.53980     4.39074   174.50159   183.84051     4.39407
     1.60000   174.65561   181.32505     4.39048   174.15399   183.66551     4.39403
     1.70000   174.30160   181.13483     4.39021   173.80620   183.50890     4.39398
     1.80000   173.94700   180.96485     4.38994   173.45821   183.36778     4.39392
     1.90000   173.59180   180.81180     4.38965   173.11000   183.23982     4.39385
     2.00000   173.18515   180.65437     4.38932   172.71182   183.10726     4.39376
     2.10000   172.82861   180.52931     4.38901   172.36309   183.00161     4.39366
     2.20000   172.47142   180.41444     4.38870   172.01410   182.90428     4.39356
     2.30000   172.11357   180.30841     4.38838   171.66482   182.81425     4.39345
     2.40000   171.70382   180.19672     4.38801   171.26532   182.71915     4.39332
     2.50000   171.34449   180.10600     4.38767   170.91536   182.64202     4.39319
     2.60000   170.93301   180.00954     4.38728   170.51503   182.55993     4.39303
     2.70000   170.57211   179.93050     4.38692   170.16431   182.49288     4.39288
     2.80000   170.15881   179.84580     4.38651   169.76307   182.42107     4.39269
     2.90000   169.79629   179.77586     4.38614   169.41150   182.36207     4.39252
     3.00000   169.38107   179.70041     4.38571   169.00924   182.29855     4.39232
     3.10000   168.96481   179.62911     4.38527   168.60639   182.23882     4.39210
     3.20000   168.59962   179.56968     4.38488   168.25335   182.18937     4.39190
     3.30000   168.18132   179.50501     4.38442   167.84933   182.13578     4.39166
     3.40000   167.76188   179.44336     4.38396   167.44465   182.08505     4.39141
     3.50000   167.34131   179.38444     4.38349   167.03927   182.03693     4.39115
     3.60000   166.91956   179.32799     4.38301   166.63317   181.99120     4.39087
     3.70000   166.44375   179.26724     4.38246   166.17547   181.94237     4.39055
     3.80000   166.01946   179.21533     4.38196   165.76775   181.90112     4.39026
     3.90000   165.59393   179.16527     4.38146   165.35923   181.86174     4.38995
     4.00000   165.11378   179.11106     4.38089   164.89870   181.81949     4.38959
     4.10000   164.68557   179.06444     4.38037   164.48838   181.78365     4.38926
     4.20000   164.20236   179.01378     4.37979   164.02576   181.74511     4.38888
     4.30000   163.71750   178.96476     4.37919   163.56198   181.70834     4.38848
     4.40000   163.23096   178.91726     4.37860   163.09701   181.67321     4.38808
     4.50000   162.74272   178.87117     4.37799   162.63080   181.63961     4.38766
     4.60000   162.25276   178.82636     4.37738   162.16333   181.60746     4.38722
     4.70000   161.70641   178.77805     4.37670   161.64245   181.57333     4.38673
     4.80000   161.15789   178.73109     4.37602   161.11992   181.54078     4.38622
     4.90000   160.60719   178.68541     4.37533   160.59570   181.50971     4.38570
     5.00000   160.05430   178.64090     4.37464   160.06974   181.48004     4.38517
     5.10000   159.49920   178.59750     4.37394   159.54200   181.45170     4.38462
     5.20000   158.88610   178.55099     4.37318   158.95943   181.42198     4.38401
     5.30000   158.27033   178.50565     4.37242   158.37461   181.39371     4.38338
     5.40000   157.65186   178.46140     4.37166   157.78748   181.36682     4.38274
     5.50000   156.97419   178.41434     4.37083   157.14435   181.33899     4.38203
     5.60000   156.29333   178.36845     4.37001   156.49836   181.31267     4.38130
     5.70000   155.55224   178.32000     4.36912   155.79529   181.28577     4.38050
     5.80000   154.80749   178.27279     4.36825   155.08874   181.26049     4.37969
     5.90000   154.00146   178.22327     4.36733   154.32392   181.23501     4.37880
     6.00000   153.13334   178.17170     4.36636   153.49988   181.20964     4.37783
     6.10000   152.20232   178.11829     4.36535   152.61558   181.18471     4.37679
     6.20000    90.55452   177.61321     4.35772    89.44548   182.38679     4.35772
     6.30000    90.55445   177.61342     4.35768    89.44555   182.38658     4.35768
     6.40000    90.55439   177.61363     4.35764    89.44561   182.38637     4.35764
     6.50000    90.55433   177.61384     4.35759    89.44567   182.38616     4.35759
     6.60000    90.55427   177.61406     4.35755    89.44573   182.38594     4.35755
     6.70000    90.55421   177.61427     4.35751    89.44579   182.38573     4.35751
     6.80000    90.55415   177.61448     4.35746    89.44585   182.38552     4.35746
     6.90000    90.55409   177.61469     4.35742    89.44591   182.38531     4.35742
     7.00000    90.55403   177.61490     4.35737    89.44597   182.38510     4.35737
     7.10000    90.55397   177.61511     4.35733    89.44603   182.38489     4.35733
     7.20000    90.55391   177.61532     4.35729    89.44609   182.38468     4.35729
     7.30000    90.55384   177.61553     4.35724    89.44616   182.38447     4.35724
     7.40000    90.55378   177.61574     4.35720    89.44622   182.38426     4.35720
     7.50000    90.55372   177.61595     4.35715    89.44628   182.38405     4.35715
     7.60000    90.55366   177.61616     4.35711    89.44634   182.38384     4.35711
     7.70000    90.55360   177.61637     4.35707    89.44640   182.38363     4.35707
     7.80000    90.55354   177.61658     4.35702    89.44646   182.38342     4.35702
     7.90000    90.55348   177.61679     4.35698    89.44652   182.38321     4.35698
     8.00000    90.55342   177.61700     4.35694    89.44658   182.38300     4.35694
     8.10000    90.55336   177.61721     4.35689    89.44664   182.38279     4.35689
     8.20000    90.55330   177.61742     4.35685    89.44670   182.38258     4.35685
     8.30000    90.55324   177.61763     4.35680    89.44676   182.38237     4.35680
     8.40000    90.55318   177.61783     4.35676    89.44682   182.38217     4.35676
     8.50000    90.55312   177.61804     4.35672    89.44688   182.38196     4.35672
     8.60000    90.55306   177.61825     4.35667    89.44694   182.38175     4.35667
     8.70000    90.55300   177.61846     4.35663    89.44700   182.38154     4.35663
     8.80000    90.55294   177.61867     4.35658    89.44706   182.38133     4.35658
     8.90000    90.55287   177.61888     4.35654    89.44713   182.38112     4.35654
     9.00000    90.55281   177.61909     4.35650    89.44719   182.38091     4.35650
     9.10000    90.55275   177.61930     4.35645    89.44725   182.38070     4.35645
     9.20000    90.55269   177.61950     4.35641    89.44731   182.38050     4.35641
     9.30000    90.55263   177.61971     4.35636    89.44737   182.38029     4.35636
     9.40000    90.55257   177.61992     4.35632    89.44743   182.38008     4.35632
     9.50000    90.55251   177.62013     4.35628    89.44749   182.37987     4.35628
     9.60000    90.55245   177.62034     4.35623    89.44755   182.37966     4.35623
     9.70000    90.55239   177.62055     4.35619    89.44761   182.37945     4.35619
     9.80000    90.55233   177.62075     4.35614    89.44767   182.37925     4.35614
     9.90000    90.55227   177.62096     4.35610    89.44773   182.37904     4.35610
    10.00000    90.55221   177.62117     4.35606    89.44779   182.37883     4.35606
    10.10000    90.55215   177.62138     4.35601    89.44785   182.37862     4.35601
    10.20000    90.55209   177.62158     4.35597    89.44791   182.37842     4.35597
    10.30000    90.55203   177.62179     4.35592    89.44797   182.37821     4.35592
    10.40000    90.55197   177.62200     4.35588    89.44803   182.37800     4.35588
    10.50000    90.55191   177.62221     4.35584    89.44809   182.37779     4.35584
    10.60000    90.55185   177.62241     4.35579    89.44815   182.37759     4.35579
    10.70000    90.55179   177.62262     4.35575    89.44821   182.37738     4.35575
    10.80000    90.55173   177.62283     4.35570    89.44827   182.37717     4.35570
    10.90000    90.55167   177.62303     4.35566    89.44833   182.37697     4.35566
    11.00000    90.55161   177.62324     4.35561    89.44839   182.37676     4.35561
    11.10000    90.55155   177.62345     4.35557    89.44845   182.37655     4.35557
    11.20000    90.55149   177.62365     4.35553    89.44851   182.37635     4.35553
    11.30000    90.55143   177.62386     4.35548    89.44857   182.37614     4.35548
    11.40000    90.55137   177.62407     4.35544    89.44863   182.37593     4.35544
    11.50000    90.55131   177.62427     4.35539    89.44869   182.37573     4.35539
    11.60000    90.55125   177.62448     4.35535    89.44875   182.37552     4.35535
    11.70000    90.55119   177.62469     4.35531    89.44881   182.37531     4.35531
    11.80000    90.55113   177.62489     4.35526    89.44887   182.37511     4.35526
    11.90000    90.55107   177.62510     4.35522    89.44893   182.37490     4.35522
    12.00000    90.55101   177.62530     4.35517    89.44899   182.37470     4.35517
    12.10000    90.55095   177.62551     4.35513    89.44905   182.37449     4.35513
    12.20000    90.55089   177.62571     4.35509    89.44911   182.37429     4.35509
    12.30000    90.55083   177.62592     4.35504    89.44917   182.37408     4.35504
    12.40000    90.55077   177.62613     4.35500    89.44923   182.37387     4.35500
    12.50000    90.55072   177.62633     4.35495    89.44928   182.37367     4.35495
    12.60000    90.55066   177.62654     4.35491    89.44934   182.37346     4.35491
    12.70000    90.55060   177.62674     4.35486    89.44940   182.37326     4.35486
    12.80000    90.55054   177.62695     4.35482    89.44946   182.37305     4.35482
    12.90000    90.55048   177.62715     4.35478    89.44952   182.37285     4.35478
    13.00000    90.55042   177.62736     4.35473    89.44958   182.37264     4.35473
    13.10000    90.55036   177.62756     4.35469    89.44964   182.37244     4.35469
    13.20000    90.55030   177.62777     4.35464    89.44970   182.37223     4.35464
    13.30000    90.55024   177.62797     4.35460    89.44976   182.37203     4.35460
    13.40000    90.55018   177.62818     4.35456    89.44982   182.37182     4.35456
    13.50000    90.55012   177.62838     4.35451    89.44988   182.37162     4.35451
    13.60000    90.55006   177.62858     4.35447    89.44994   182.37142     4.35447
    13.70000    90.55000   177.62879     4.35442    89.45000   182.37121     4.35442
    13.80000    90.54994   177.62899     4.35438    89.45006   182.37101     4.35438
    13.90000    90.54988   177.62920     4.35433    89.45012   182.37080     4.35433
    14.00000    90.54982   177.62940     4.35429    89.45018   182.37060     4.35429
    14.10000    90.54977   177.62961     4.35425    89.45023   182.37039     4.35425
    14.20000    90.54971   177.62981     4.35420    89.45029   182.37019     4.35420
    14.30000    90.54965   177.63001     4.35416    89.45035   182.36999     4.35416
    14.40000    90.54959   177.63022     4.35411    89.45041   182.36978     4.35411
    14.50000    90.54953   177.63042     4.35407    89.45047   182.36958     4.35407
    14.60000    90.54947   177.63062     4.35402    89.45053   182.36938     4.35402
    14.70000    90.54941   177.63083     4.35398    89.45059   182.36917     4.35398
    14.80000    90.54935   177.63103     4.35394    89.45065   182.36897     4.35394
    14.90000    90.54929   177.63123     4.35389    89.45071   182.36877     4.35389
    15.00000    90.54923   177.63144     4.35385    89.45077   182.36856     4.35385
    15.10000    90.54918   177.63164     4.35380    89.45082   182.36836     4.35380
    15.20000    90.54912   177.63184     4.35376    89.45088   182.36816     4.35376
    15.30000    90.54906   177.63205     4.35371    89.45094   182.36795     4.35371
    15.40000    90.54900   177.63225     4.35367    89.45100   182.36775     4.35367
    15.50000    90.54894   177.63245     4.35363    89.45106   182.36755     4.35363
    15.60000    90.54888   177.63265     4.35358    89.45112   182.36735     4.35358
    15.70000    90.54882   177.63286     4.35354    89.45118   182.36714     4.35354
    15.80000    90.54876   177.63306     4.35349    89.45124   182.36694     4.35349
    15.90000    90.54871   177.63326     4.35345    89.45129   182.36674     4.35345
    16.00000    90.54865   177.63346     4.35340    89.45135   182.36654     4.35340
    16.10000    90.54859   177.63366     4.35336    89.45141   182.36634     4.35336
    16.20000    90.54853   177.63387     4.35331    89.45147   182.36613     4.35331
    16.30000    90.54847   177.63407     4.35327    89.45153   182.36593     4.35327
    16.40000    90.54841   177.63427     4.35323    89.45159   182.36573     4.35323
    16.50000    90.54835   177.63447     4.35318    89.45165   182.36553     4.35318
    16.60000    90.54829   177.63467     4.35314    89.45171   182.36533     4.35314
    16.70000    90.54824   177.63488     4.35309    89.45176   182.36512     4.35309
    16.80000    90.54818   177.63508     4.35305    89.45182   182.36492     4.35305
    16.90000    90.54812   177.63528     4.35300    89.45188   182.36472     4.35300
    17.00000    90.54806   177.63548     4.35296    89.45194   182.36452     4.35296
    17.10000    90.54800   177.63568     4.35292    89.45200   182.36432     4.35292
    17.20000    90.54794   177.63588     4.35287    89.45206   182.36412     4.35287
    17.30000    90.54789   177.63608     4.35283    89.45211   182.36392     4.35283
    17.40000    90.54783   177.63628     4.35278    89.45217   182.36372     4.35278
    17.50000    90.54777   177.63649     4.35274    89.45223   182.36351     4.35274
    17.60000    90.54771   177.63669     4.35269    89.45229   182.36331     4.35269
    17.70000    90.54765   177.63689     4.35265    89.45235   182.36311     4.35265
    17.80000    90.54759   177.63709     4.35260    89.45241   182.36291     4.35260
    17.90000    90.54754   177.63729     4.35256    89.45246   182.36271     4.35256
    18.00000    90.54748   177.63749     4.35252    89.45252   182.36251     4.35252
    18.10000    90.54742   177.63769     4.35247    89.45258   182.36231     4.35247
    18.20000    90.54736   177.63789     4.35243    89.45264   182.36211     4.35243
    18.30000    90.54730   177.63809     4.35238    89.45270   182.36191     4.35238
    18.40000    90.54725   177.63829     4.35234    89.45275   182.36171     4.35234
    18.50000    90.54719   177.63849     4.35229    89.45281   182.36151     4.35229
    18.60000    90.54713   177.63869     4.35225    89.45287   182.36131     4.35225
    18.70000    90.54707   177.63889     4.35220    89.45293   182.36111     4.35220
    18.80000    90.54701   177.63909     4.35216    89.45299   182.36091     4.35216
    18.90000    90.54695   177.63929     4.35211    89.45305   182.36071     4.35211
    19.00000    90.54690   177.63949     4.35207    89.45310   182.36051     4.35207
    19.10000    90.54684   177.63969     4.35203    89.45316   182.36031     4.35203
    19.20000    90.54678   177.63989     4.35198    89.45322   182.36011     4.35198
    19.30000    90.54672   177.64009     4.35194    89.45328   182.35991     4.35194
    19.40000    90.54667   177.64028     4.35189    89.45333   182.35972     4.35189
    19.50000    90.54661   177.64048     4.35185    89.45339   182.35952     4.35185
    19.60000    90.54655   177.64068     4.35180    89.45345   182.35932     4.35180
    19.70000    90.54649   177.64088     4.35176    89.45351   182.35912     4.35176
    19.80000    90.54643   177.64108     4.35171    89.45357   182.35892     4.35171
    19.90000    90.54638   177.64128     4.35167    89.45362   182.35872     4.35167
    20.00000    90.54632   177.64148     4.35162    89.45368   182.35852     4.35162
    20.10000    90.54626   177.64168     4.35158    89.45374   182.35832     4.35158
    20.20000    90.54620   177.64187     4.35154    89.45380   182.35813     4.35154
    20.30000    90.54615   177.64207     4.35149    89.45385   182.35793     4.35149
    20.40000    90.54609   177.64227     4.35145    89.45391   182.35773     4.35145
    20.50000    90.54603   177.64247     4.35140    89.45397   182.35753     4.35140
    20.60000    90.54597   177.64267     4.35136    89.45403   182.35733     4.35136
    20.70000    90.54592   177.64287     4.35131    89.45408   182.35713     4.35131
    20.80000    90.54586   177.64306     4.35127    89.45414   182.35694     4.35127
    20.90000    90.54580   177.64326     4.35122    89.45420   182.35674     4.35122
    21.00000    90.54574   177.64346     4.35118    89.45426   182.35654     4.35118
    21.10000    90.54569   177.64366     4.35113    89.45431   182.35634     4.35113
    21.20000    90.54563   177.64385     4.35109    89.45437   182.35615     4.35109
    21.30000    90.54557   177.64405     4.35104    89.45443   182.35595     4.35104
    21.40000    90.54551   177.64425     4.35100    89.45449   182.35575     4.35100
    21.50000    90.54546   177.64445     4.35095    89.45454   182.35555     4.35095
    21.60000    90.54540   177.64464     4.35091    89.45460   182.35536     4.35091
    21.70000    90.54534   177.64484     4.35087    89.45466   182.35516     4.35087
    21.80000    90.54528   177.64504     4.35082    89.45472   182.35496     4.35082
    21.90000    90.54523   177.64524     4.35078    89.45477   182.35476     4.35078
    22.00000    90.54517   177.64543     4.35073    89.45483   182.35457     4.35073
    22.10000    90.54511   177.64563     4.35069    89.45489   182.35437     4.35069
    22.20000    90.54505   177.64583     4.35064    89.45495   182.35417     4.35064
    22.30000    90.54500   177.64602     4.35060    89.45500   182.35398     4.35060
    22.40000    90.54494   177.64622     4.35055    89.45506   182.35378     4.35055
    22.50000    90.54488   177.64641     4.35051    89.45512   182.35359     4.35051
    22.60000    90.54483   177.64661     4.35046    89.45517   182.35339     4.35046
    22.70000    90.54477   177.64681     4.35042    89.45523   182.35319     4.35042
    22.80000    90.54471   177.64700     4.35037    89.45529   182.35300     4.35037
    22.90000    90.54465   177.64720     4.35033    89.45535   182.35280     4.35033
    23.00000    90.54460   177.64740     4.35028    89.45540   182.35260     4.35028
    23.10000    90.54454   177.64759     4.35024    89.45546   182.35241     4.35024
    23.20000    90.54448   177.64779     4.35019    89.45552   182.35221     4.35019
    23.30000    90.54443   177.64798     4.35015    89.45557   182.35202     4.35015
