 # applied field (T), theta (degree), phi (degree), abs for RE 1-2
     0.00000     0.00000     0.00000     3.78079     0.00000     0.00000     3.78079
     0.10000     0.30550   360.00000     3.78076     0.34102   360.00000     3.78077
     0.20000     0.56774   360.00000     3.78068     0.63374   360.00000     3.78074
     0.30000     0.87327   360.00000     3.78055     0.97478   360.00000     3.78068
     0.40000     1.17884   360.00000     3.78035     1.31586   360.00000     3.78059
     0.50000     1.48446   360.00000     3.78009     1.65697   360.00000     3.78048
     0.60000     1.74683   360.00000     3.77983     1.94979   360.00000     3.78037
     0.70000     2.05257   360.00000     3.77946     2.29100   360.00000     3.78021
     0.80000     2.35840   360.00000     3.77904     2.63227   360.00000     3.78002
     0.90000     2.66432   360.00000     3.77856     2.97362   360.00000     3.77981
     1.00000     2.97035   360.00000     3.77802     3.31505   360.00000     3.77957
     1.10000     3.23312   360.00000     3.77751     3.60819   360.00000     3.77935
     1.20000     3.53938   360.00000     3.77686     3.94980   360.00000     3.77906
     1.30000     3.84579   360.00000     3.77615     4.29153   360.00000     3.77875
     1.40000     4.15235   360.00000     3.77539     4.63338   360.00000     3.77842
     1.50000     4.41561   360.00000     3.77468     4.92690   360.00000     3.77811
     1.60000     4.72250   360.00000     3.77381     5.26900   360.00000     3.77773
     1.70000     5.02958   360.00000     3.77288     5.61125   360.00000     3.77732
     1.80000     5.33686   360.00000     3.77188     5.95365   360.00000     3.77688
     1.90000     5.60078   360.00000     3.77099     6.24768   360.00000     3.77649
     2.00000     5.90848   360.00000     3.76989     6.59041   360.00000     3.77601
     2.10000     6.21641   360.00000     3.76873     6.93333   360.00000     3.77551
     2.20000     6.52460   360.00000     3.76752     7.27644   360.00000     3.77497
     2.30000     6.83305   360.00000     3.76624     7.61975   360.00000     3.77442
     2.40000     7.09802   360.00000     3.76510     7.91459   360.00000     3.77392
     2.50000     7.40700   360.00000     3.76372     8.25832   360.00000     3.77332
     2.60000     7.71627   360.00000     3.76228     8.60227   360.00000     3.77269
     2.70000     8.02586   360.00000     3.76079     8.94647   360.00000     3.77204
     2.80000     8.33578   360.00000     3.75923     9.29092   360.00000     3.77136
     2.90000     8.64603   360.00000     3.75762     9.63563   360.00000     3.77066
     3.00000     8.91260   360.00000     3.75619     9.93171   360.00000     3.77004
     3.10000     9.22352   360.00000     3.75447    10.27693   360.00000     3.76929
     3.20000     9.53480   360.00000     3.75269    10.62243   360.00000     3.76852
     3.30000     9.84648   360.00000     3.75086    10.96824   360.00000     3.76772
     3.40000    10.15855   360.00000     3.74897    11.31435   360.00000     3.76690
     3.50000    10.47103   360.00000     3.74702    11.66077   360.00000     3.76605
     3.60000    10.78394   360.00000     3.74501    12.00753   360.00000     3.76518
     3.70000    11.09728   360.00000     3.74295    12.35461   360.00000     3.76429
     3.80000    11.41108   360.00000     3.74083    12.70204   360.00000     3.76337
     3.90000    11.72533   360.00000     3.73866    13.04982   360.00000     3.76243
     4.00000    11.99543   360.00000     3.73675    13.34861   360.00000     3.76161
     4.10000    12.31057   360.00000     3.73447    13.69707   360.00000     3.76062
     4.20000    12.62622   360.00000     3.73213    14.04591   360.00000     3.75962
     4.30000    12.94237   360.00000     3.72974    14.39513   360.00000     3.75858
     4.40000    13.25904   360.00000     3.72730    14.74476   360.00000     3.75753
     4.50000    13.57625   360.00000     3.72479    15.09479   360.00000     3.75645
     4.60000    13.89401   360.00000     3.72224    15.44524   360.00000     3.75535
     4.70000    14.21234   360.00000     3.71962    15.79611   360.00000     3.75423
     4.80000    14.53123   360.00000     3.71696    16.14741   360.00000     3.75308
     4.90000    14.85071   360.00000     3.71423    16.49915   360.00000     3.75191
     5.00000    15.21621   360.00000     3.71106    16.90131   360.00000     3.75055
     5.10000    15.53699   360.00000     3.70822    17.25403   360.00000     3.74933
     5.20000    15.85840   360.00000     3.70533    17.60722   360.00000     3.74809
     5.30000    16.18045   360.00000     3.70238    17.96089   360.00000     3.74683
     5.40000    16.50315   360.00000     3.69939    18.31505   360.00000     3.74555
     5.50000    16.82653   360.00000     3.69634    18.66970   360.00000     3.74424
     5.60000    17.15058   360.00000     3.69323    19.02485   360.00000     3.74292
     5.70000    17.47532   360.00000     3.69008    19.38052   360.00000     3.74157
     5.80000    17.84696   360.00000     3.68641    19.78725   360.00000     3.74000
     5.90000    18.17324   360.00000     3.68314    20.14405   360.00000     3.73861
     6.00000    18.50025   360.00000     3.67983    20.50139   360.00000     3.73720
     6.10000    18.82800   360.00000     3.67646    20.85927   360.00000     3.73576
     6.20000    19.15652   360.00000     3.67304    21.21771   360.00000     3.73431
     6.30000    19.53257   360.00000     3.66908    21.62766   360.00000     3.73262
     6.40000    19.86276   360.00000     3.66556    21.98732   360.00000     3.73112
     6.50000    20.19377   360.00000     3.66198    22.34756   360.00000     3.72961
     6.60000    20.57270   360.00000     3.65784    22.75961   360.00000     3.72784
     6.70000    20.90548   360.00000     3.65417    23.12112   360.00000     3.72629
     6.80000    21.23910   360.00000     3.65045    23.48325   360.00000     3.72471
     6.90000    21.62108   360.00000     3.64614    23.89748   360.00000     3.72288
     7.00000    21.95658   360.00000     3.64232    24.26093   360.00000     3.72126
     7.10000    22.34073   360.00000     3.63790    24.67670   360.00000     3.71938
     7.20000    22.67815   360.00000     3.63398    25.04151   360.00000     3.71773
     7.30000    23.06454   360.00000     3.62945    25.45887   360.00000     3.71581
     7.40000    23.40396   360.00000     3.62544    25.82508   360.00000     3.71411
     7.50000    23.79268   360.00000     3.62081    26.24405   360.00000     3.71215
     7.60000    24.13416   360.00000     3.61671    26.61170   360.00000     3.71041
     7.70000    24.52527   360.00000     3.61197    27.03234   360.00000     3.70841
     7.80000    24.91769   360.00000     3.60718    27.45387   360.00000     3.70638
     7.90000    25.26246   360.00000     3.60295    27.82379   360.00000     3.70459
     8.00000    25.65739   360.00000     3.59806    28.24704   360.00000     3.70253
     8.10000    26.05369   360.00000     3.59312    28.67122   360.00000     3.70044
     8.20000    26.40192   360.00000     3.58877    29.04348   360.00000     3.69860
     8.30000    26.80085   360.00000     3.58374    29.46945   360.00000     3.69647
     8.40000    27.20122   360.00000     3.57867    29.89637   360.00000     3.69432
     8.50000    27.60305   360.00000     3.57356    30.32427   360.00000     3.69216
     8.60000    28.00636   360.00000     3.56840    30.75315   360.00000     3.68997
     8.70000    28.41117   360.00000     3.56320    31.18302   360.00000     3.68777
     8.80000    28.81751   360.00000     3.55796    31.61390   360.00000     3.68555
     8.90000    29.22539   360.00000     3.55268    32.04578   360.00000     3.68331
     9.00000    29.63485   360.00000     3.54736    32.47869   360.00000     3.68106
     9.10000    30.04590   360.00000     3.54201    32.91263   360.00000     3.67878
     9.20000    30.45856   360.00000     3.53663    33.34761   360.00000     3.67650
     9.30000    30.87285   360.00000     3.53121    33.78363   360.00000     3.67419
     9.40000    31.28881   360.00000     3.52576    34.22071   360.00000     3.67187
     9.50000    31.75846   360.00000     3.51959    34.71340   360.00000     3.66924
     9.60000    32.17802   360.00000     3.51408    35.15275   360.00000     3.66689
     9.70000    32.59931   360.00000     3.50854    35.59320   360.00000     3.66453
     9.80000    33.07504   360.00000     3.50229    36.08969   360.00000     3.66185
     9.90000    33.50007   360.00000     3.49670    36.53246   360.00000     3.65945
    10.00000    33.98007   360.00000     3.49039    37.03160   360.00000     3.65674
    10.10000    34.40895   360.00000     3.48477    37.47673   360.00000     3.65433
    10.20000    34.89334   360.00000     3.47843    37.97855   360.00000     3.65159
    10.30000    35.32615   360.00000     3.47277    38.42608   360.00000     3.64915
    10.40000    35.81503   360.00000     3.46640    38.93061   360.00000     3.64639
    10.50000    36.30632   360.00000     3.46001    39.43660   360.00000     3.64362
    10.60000    36.80005   360.00000     3.45361    39.94404   360.00000     3.64083
    10.70000    37.29626   360.00000     3.44721    40.45296   360.00000     3.63804
    10.80000    37.79498   360.00000     3.44081    40.96335   360.00000     3.63524
    10.90000    38.29623   360.00000     3.43441    41.47522   360.00000     3.63242
    11.00000    38.80003   360.00000     3.42801    41.98859   360.00000     3.62961
    11.10000    39.30641   360.00000     3.42162    42.50346   360.00000     3.62678
    11.20000    39.87185   360.00000     3.41453    43.07705   360.00000     3.62363
    11.30000    40.38377   360.00000     3.40817    43.59511   360.00000     3.62079
    11.40000    40.95541   360.00000     3.40111    44.17226   360.00000     3.61763
    11.50000    41.47296   360.00000     3.39479    44.69352   360.00000     3.61479
    11.60000    42.05091   360.00000     3.38779    45.27426   360.00000     3.61162
    11.70000    42.63223   360.00000     3.38082    45.85689   360.00000     3.60845
    11.80000    43.21693   360.00000     3.37390    46.44142   360.00000     3.60528
    11.90000    43.80504   360.00000     3.36702    47.02786   360.00000     3.60211
    12.00000    44.39658   360.00000     3.36019    47.61621   360.00000     3.59895
    12.10000    44.99157   360.00000     3.35341    48.20647   360.00000     3.59579
    12.20000    45.59003   360.00000     3.34669    48.79865   360.00000     3.59264
    12.30000    46.25211   360.00000     3.33936    49.45204   360.00000     3.58917
    12.40000    46.91842   360.00000     3.33212    50.10776   360.00000     3.58571
    12.50000    47.52805   360.00000     3.32561    50.70607   360.00000     3.58258
    12.60000    48.20246   360.00000     3.31854    51.36622   360.00000     3.57915
    12.70000    48.88111   360.00000     3.31157    52.02868   360.00000     3.57574
    12.80000    49.62610   360.00000     3.30407    52.75382   360.00000     3.57202
    12.90000    50.31363   360.00000     3.29733    53.42111   360.00000     3.56865
    13.00000    51.06830   360.00000     3.29009    54.15151   360.00000     3.56498
    13.10000    51.82798   360.00000     3.28300    54.88463   360.00000     3.56134
    13.20000    52.59267   360.00000     3.27605    55.62046   360.00000     3.55774
    13.30000    53.36234   360.00000     3.26927    56.35899   360.00000     3.55417
    13.40000    54.20153   360.00000     3.26209    57.16194   360.00000     3.55033
    13.50000    55.04647   360.00000     3.25511    57.96801   360.00000     3.54655
    13.60000    55.89710   360.00000     3.24833    58.77717   360.00000     3.54281
    13.70000    56.75335   360.00000     3.24177    59.58939   360.00000     3.53912
    13.80000    57.68152   360.00000     3.23492    60.46735   360.00000     3.53521
    13.90000    58.61602   360.00000     3.22834    61.34878   360.00000     3.53137
    14.00000    59.62404   360.00000     3.22155    62.29684   360.00000     3.52733
    14.10000    60.63908   360.00000     3.21507    63.24875   360.00000     3.52338
    14.20000    61.72922   360.00000     3.20849    64.26820   360.00000     3.51927
    14.30000    62.82699   360.00000     3.20225    65.29185   360.00000     3.51527
    14.40000    64.00139   360.00000     3.19600    66.38389   360.00000     3.51114
    14.50000    65.25364   360.00000     3.18980    67.54499   360.00000     3.50692
    14.60000    66.51472   360.00000     3.18404    68.71097   360.00000     3.50287
    14.70000    67.92572   360.00000     3.17814    70.01187   360.00000     3.49857
    14.80000    69.41807   360.00000     3.17249    71.38371   360.00000     3.49429
    14.90000    71.06457   360.00000     3.16693    72.89272   360.00000     3.48990
    15.00000    72.86778   360.00000     3.16161    74.54019   360.00000     3.48550
    15.10000    74.90297   360.00000     3.15649    76.39357   360.00000     3.48104
    15.20000    77.24736   360.00000     3.15166    78.52121   360.00000     3.47659
    15.30000    80.12791   360.00000     3.14712    81.12592   360.00000     3.47214
    15.40000    84.44917   360.00000     3.14278    85.01753   360.00000     3.46757
    15.50000    90.00000   360.00000     3.14095    90.00000   360.00000     3.46552
    15.60000    90.00000   360.00000     3.14108    90.00000   360.00000     3.46563
    15.70000    90.00000   360.00000     3.14121    90.00000   360.00000     3.46574
    15.80000    90.00000   360.00000     3.14134    90.00000   360.00000     3.46585
    15.90000    90.00000   360.00000     3.14147    90.00000   360.00000     3.46596
    16.00000    90.00000   360.00000     3.14160    90.00000   360.00000     3.46606
    16.10000    90.00000   360.00000     3.14173    90.00000   360.00000     3.46617
    16.20000    90.00000   360.00000     3.14186    90.00000   360.00000     3.46628
    16.30000    90.00000   360.00000     3.14198    90.00000   360.00000     3.46639
    16.40000    90.00000   360.00000     3.14211    90.00000   360.00000     3.46650
    16.50000    90.00000   360.00000     3.14224    90.00000   360.00000     3.46661
    16.60000    90.00000   360.00000     3.14237    90.00000   360.00000     3.46672
    16.70000    90.00000   360.00000     3.14250    90.00000   360.00000     3.46683
    16.80000    90.00000   360.00000     3.14263    90.00000   360.00000     3.46694
    16.90000    90.00000   360.00000     3.14276    90.00000   360.00000     3.46705
    17.00000    90.00000   360.00000     3.14289    90.00000   360.00000     3.46716
    17.10000    90.00000   360.00000     3.14302    90.00000   360.00000     3.46727
    17.20000    90.00000   360.00000     3.14315    90.00000   360.00000     3.46738
    17.30000    90.00000   360.00000     3.14328    90.00000   360.00000     3.46749
    17.40000    90.00000   360.00000     3.14341    90.00000   360.00000     3.46760
    17.50000    90.00000   360.00000     3.14353    90.00000   360.00000     3.46770
    17.60000    90.00000   360.00000     3.14366    90.00000   360.00000     3.46781
    17.70000    90.00000   360.00000     3.14379    90.00000   360.00000     3.46792
    17.80000    90.00000   360.00000     3.14392    90.00000   360.00000     3.46803
    17.90000    90.00000   360.00000     3.14405    90.00000   360.00000     3.46814
    18.00000    90.00000   360.00000     3.14418    90.00000   360.00000     3.46825
    18.10000    90.00000   360.00000     3.14431    90.00000   360.00000     3.46836
    18.20000    90.00000   360.00000     3.14444    90.00000   360.00000     3.46847
    18.30000    90.00000   360.00000     3.14457    90.00000   360.00000     3.46858
    18.40000    90.00000   360.00000     3.14469    90.00000   360.00000     3.46868
    18.50000    90.00000   360.00000     3.14482    90.00000   360.00000     3.46879
    18.60000    90.00000   360.00000     3.14495    90.00000   360.00000     3.46890
    18.70000    90.00000   360.00000     3.14508    90.00000   360.00000     3.46901
    18.80000    90.00000   360.00000     3.14521    90.00000   360.00000     3.46912
    18.90000    90.00000   360.00000     3.14534    90.00000   360.00000     3.46923
    19.00000    90.00000   360.00000     3.14547    90.00000   360.00000     3.46934
    19.10000    90.00000   360.00000     3.14559    90.00000   360.00000     3.46945
    19.20000    90.00000   360.00000     3.14572    90.00000   360.00000     3.46955
    19.30000    90.00000   360.00000     3.14585    90.00000   360.00000     3.46966
    19.40000    90.00000   360.00000     3.14598    90.00000   360.00000     3.46977
    19.50000    90.00000   360.00000     3.14611    90.00000   360.00000     3.46988
    19.60000    90.00000   360.00000     3.14624    90.00000   360.00000     3.46999
    19.70000    90.00000   360.00000     3.14637    90.00000   360.00000     3.47010
    19.80000    90.00000   360.00000     3.14649    90.00000   360.00000     3.47021
    19.90000    90.00000   360.00000     3.14662    90.00000   360.00000     3.47031
    20.00000    90.00000   360.00000     3.14675    90.00000   360.00000     3.47042
    20.10000    90.00000   360.00000     3.14688    90.00000   360.00000     3.47053
    20.20000    90.00000   360.00000     3.14701    90.00000   360.00000     3.47064
    20.30000    90.00000   360.00000     3.14713    90.00000   360.00000     3.47075
    20.40000    90.00000   360.00000     3.14726    90.00000   360.00000     3.47086
    20.50000    90.00000   360.00000     3.14739    90.00000   360.00000     3.47096
    20.60000    90.00000   360.00000     3.14752    90.00000   360.00000     3.47107
    20.70000    90.00000   360.00000     3.14765    90.00000   360.00000     3.47118
    20.80000    90.00000   360.00000     3.14777    90.00000   360.00000     3.47129
    20.90000    90.00000   360.00000     3.14790    90.00000   360.00000     3.47140
    21.00000    90.00000   360.00000     3.14803    90.00000   360.00000     3.47150
    21.10000    90.00000   360.00000     3.14816    90.00000   360.00000     3.47161
    21.20000    90.00000   360.00000     3.14829    90.00000   360.00000     3.47172
    21.30000    90.00000   360.00000     3.14841    90.00000   360.00000     3.47183
    21.40000    90.00000   360.00000     3.14854    90.00000   360.00000     3.47194
    21.50000    90.00000   360.00000     3.14867    90.00000   360.00000     3.47204
    21.60000    90.00000   360.00000     3.14880    90.00000   360.00000     3.47215
    21.70000    90.00000   360.00000     3.14893    90.00000   360.00000     3.47226
    21.80000    90.00000   360.00000     3.14905    90.00000   360.00000     3.47237
    21.90000    90.00000   360.00000     3.14918    90.00000   360.00000     3.47248
    22.00000    90.00000   360.00000     3.14931    90.00000   360.00000     3.47258
    22.10000    90.00000   360.00000     3.14944    90.00000   360.00000     3.47269
    22.20000    90.00000   360.00000     3.14956    90.00000   360.00000     3.47280
    22.30000    90.00000   360.00000     3.14969    90.00000   360.00000     3.47291
    22.40000    90.00000   360.00000     3.14982    90.00000   360.00000     3.47301
    22.50000    90.00000   360.00000     3.14995    90.00000   360.00000     3.47312
    22.60000    90.00000   360.00000     3.15007    90.00000   360.00000     3.47323
    22.70000    90.00000   360.00000     3.15020    90.00000   360.00000     3.47334
    22.80000    90.00000   360.00000     3.15033    90.00000   360.00000     3.47344
    22.90000    90.00000   360.00000     3.15046    90.00000   360.00000     3.47355
    23.00000    90.00000   360.00000     3.15058    90.00000   360.00000     3.47366
    23.10000    90.00000   360.00000     3.15071    90.00000   360.00000     3.47377
    23.20000    90.00000   360.00000     3.15084    90.00000   360.00000     3.47387
    23.30000    90.00000   360.00000     3.15097    90.00000   360.00000     3.47398
