 # applied field (T), theta (degree), phi (degree), abs for RE 3-4
     0.00000     0.00000     0.00000     3.62762     0.00000     0.00000     3.62762
     0.10000     0.66409   360.00000     3.62760     0.64308   360.00000     3.62757
     0.20000     1.32824   360.00000     3.62752     1.28623   360.00000     3.62743
     0.30000     1.99252   360.00000     3.62740     1.92952   360.00000     3.62720
     0.40000     2.65699   360.00000     3.62723     2.57303   360.00000     3.62687
     0.50000     3.32171   360.00000     3.62702     3.21683   360.00000     3.62645
     0.60000     3.93580   360.00000     3.62677     3.81164   360.00000     3.62598
     0.70000     4.60118   360.00000     3.62647     4.45619   360.00000     3.62538
     0.80000     5.26698   360.00000     3.62611     5.10124   360.00000     3.62469
     0.90000     5.93328   360.00000     3.62571     5.74685   360.00000     3.62390
     1.00000     6.60013   360.00000     3.62526     6.39310   360.00000     3.62303
     1.10000     7.26758   360.00000     3.62476     7.04005   360.00000     3.62206
     1.20000     7.98691   360.00000     3.62418     7.73742   360.00000     3.62092
     1.30000     8.65582   360.00000     3.62359     8.38606   360.00000     3.61977
     1.40000     9.32552   360.00000     3.62296     9.03562   360.00000     3.61853
     1.50000     9.99606   360.00000     3.62229     9.68617   360.00000     3.61720
     1.60000    10.66751   360.00000     3.62157    10.33776   360.00000     3.61579
     1.70000    11.39146   360.00000     3.62075    11.04051   360.00000     3.61417
     1.80000    12.06495   360.00000     3.61994    11.69450   360.00000     3.61258
     1.90000    12.73952   360.00000     3.61910    12.34974   360.00000     3.61091
     2.00000    13.46701   360.00000     3.61814    13.05665   360.00000     3.60902
     2.10000    14.19586   360.00000     3.61714    13.76515   360.00000     3.60703
     2.20000    14.87413   360.00000     3.61618    14.42475   360.00000     3.60511
     2.30000    15.60579   360.00000     3.61509    15.13657   360.00000     3.60295
     2.40000    16.33899   360.00000     3.61397    15.85021   360.00000     3.60070
     2.50000    17.07379   360.00000     3.61281    16.56575   360.00000     3.59836
     2.60000    17.75778   360.00000     3.61169    17.23214   360.00000     3.59612
     2.70000    18.54840   360.00000     3.61036    18.00280   360.00000     3.59344
     2.80000    19.28831   360.00000     3.60908    18.72445   360.00000     3.59086
     2.90000    20.03003   360.00000     3.60777    19.44827   360.00000     3.58820
     3.00000    20.77361   360.00000     3.60642    20.17432   360.00000     3.58547
     3.10000    21.57220   360.00000     3.60494    20.95459   360.00000     3.58246
     3.20000    22.31976   360.00000     3.60352    21.68548   360.00000     3.57957
     3.30000    23.12272   360.00000     3.60197    22.47105   360.00000     3.57641
     3.40000    23.92801   360.00000     3.60038    23.25947   360.00000     3.57316
     3.50000    24.73566   360.00000     3.59875    24.05081   360.00000     3.56985
     3.60000    25.54573   360.00000     3.59710    24.84512   360.00000     3.56647
     3.70000    26.41233   360.00000     3.59530    25.69555   360.00000     3.56279
     3.80000    27.22750   360.00000     3.59358    26.49620   360.00000     3.55927
     3.90000    28.09961   360.00000     3.59171    27.35352   360.00000     3.55546
     4.00000    28.97463   360.00000     3.58981    28.21448   360.00000     3.55158
     4.10000    29.85258   360.00000     3.58788    29.07914   360.00000     3.54765
     4.20000    30.73350   360.00000     3.58591    29.94757   360.00000     3.54366
     4.30000    31.67259   360.00000     3.58379    30.87427   360.00000     3.53937
     4.40000    32.61507   360.00000     3.58164    31.80532   360.00000     3.53503
     4.50000    33.56098   360.00000     3.57945    32.74077   360.00000     3.53064
     4.60000    34.51033   360.00000     3.57723    33.68065   360.00000     3.52622
     4.70000    35.51914   360.00000     3.57484    34.68055   360.00000     3.52150
     4.80000    36.53184   360.00000     3.57242    35.68550   360.00000     3.51674
     4.90000    37.54843   360.00000     3.56996    36.69553   360.00000     3.51196
     5.00000    38.62559   360.00000     3.56732    37.76707   360.00000     3.50690
     5.10000    39.70709   360.00000     3.56465    38.84431   360.00000     3.50182
     5.20000    40.85007   360.00000     3.56179    39.98429   360.00000     3.49647
     5.30000    41.99784   360.00000     3.55888    41.13059   360.00000     3.49112
     5.40000    43.15039   360.00000     3.55594    42.28320   360.00000     3.48579
     5.50000    44.36556   360.00000     3.55279    43.50008   360.00000     3.48021
     5.60000    45.64407   360.00000     3.54945    44.78219   360.00000     3.47440
     5.70000    46.92825   360.00000     3.54605    46.07180   360.00000     3.46864
     5.80000    48.27669   360.00000     3.54245    47.42785   360.00000     3.46268
     5.90000    49.69013   360.00000     3.53863    48.85131   360.00000     3.45655
     6.00000    51.16927   360.00000     3.53461    50.34310   360.00000     3.45026
     6.10000    52.65534   360.00000     3.53053    51.84401   360.00000     3.44410
     6.20000    54.26775   360.00000     3.52608    53.47485   360.00000     3.43760
     6.30000    56.00805   360.00000     3.52126    55.23761   360.00000     3.43081
     6.40000    57.81737   360.00000     3.51626    57.07296   360.00000     3.42403
     6.50000    59.69628   360.00000     3.51109    58.98161   360.00000     3.41730
     6.60000    61.76730   360.00000     3.50547    61.08839   360.00000     3.41027
     6.70000    64.03267   360.00000     3.49944    63.39618   360.00000     3.40308
     6.80000    66.55614   360.00000     3.49297    65.97057   360.00000     3.39569
     6.90000    69.40248   360.00000     3.48608    68.87849   360.00000     3.38819
     7.00000    72.69962   360.00000     3.47880    72.25167   360.00000     3.38065
     7.10000    76.89052   360.00000     3.47093    76.54515   360.00000     3.37288
     7.20000    83.36997   360.00000     3.46254    83.19238   360.00000     3.36503
     7.30000    90.00000   360.00000     3.45962    90.00000   360.00000     3.36239
     7.40000    90.00000   360.00000     3.45973    90.00000   360.00000     3.36251
     7.50000    90.00000   360.00000     3.45984    90.00000   360.00000     3.36263
     7.60000    90.00000   360.00000     3.45995    90.00000   360.00000     3.36274
     7.70000    90.00000   360.00000     3.46006    90.00000   360.00000     3.36286
     7.80000    90.00000   360.00000     3.46017    90.00000   360.00000     3.36298
     7.90000    90.00000   360.00000     3.46028    90.00000   360.00000     3.36310
     8.00000    90.00000   360.00000     3.46039    90.00000   360.00000     3.36321
     8.10000    90.00000   360.00000     3.46050    90.00000   360.00000     3.36333
     8.20000    90.00000   360.00000     3.46062    90.00000   360.00000     3.36345
     8.30000    90.00000   360.00000     3.46073    90.00000   360.00000     3.36356
     8.40000    90.00000   360.00000     3.46084    90.00000   360.00000     3.36368
     8.50000    90.00000   360.00000     3.46095    90.00000   360.00000     3.36380
     8.60000    90.00000   360.00000     3.46106    90.00000   360.00000     3.36391
     8.70000    90.00000   360.00000     3.46117    90.00000   360.00000     3.36403
     8.80000    90.00000   360.00000     3.46128    90.00000   360.00000     3.36415
     8.90000    90.00000   360.00000     3.46139    90.00000   360.00000     3.36426
     9.00000    90.00000   360.00000     3.46150    90.00000   360.00000     3.36438
     9.10000    90.00000   360.00000     3.46161    90.00000   360.00000     3.36450
     9.20000    90.00000   360.00000     3.46172    90.00000   360.00000     3.36461
     9.30000    90.00000   360.00000     3.46183    90.00000   360.00000     3.36473
     9.40000    90.00000   360.00000     3.46194    90.00000   360.00000     3.36484
     9.50000    90.00000   360.00000     3.46205    90.00000   360.00000     3.36496
     9.60000    90.00000   360.00000     3.46216    90.00000   360.00000     3.36508
     9.70000    90.00000   360.00000     3.46227    90.00000   360.00000     3.36519
     9.80000    90.00000   360.00000     3.46238    90.00000   360.00000     3.36531
     9.90000    90.00000   360.00000     3.46249    90.00000   360.00000     3.36543
    10.00000    90.00000   360.00000     3.46260    90.00000   360.00000     3.36554
    10.10000    90.00000   360.00000     3.46271    90.00000   360.00000     3.36566
    10.20000    90.00000   360.00000     3.46282    90.00000   360.00000     3.36578
    10.30000    90.00000   360.00000     3.46293    90.00000   360.00000     3.36589
    10.40000    90.00000   360.00000     3.46304    90.00000   360.00000     3.36601
    10.50000    90.00000   360.00000     3.46315    90.00000   360.00000     3.36612
    10.60000    90.00000   360.00000     3.46326    90.00000   360.00000     3.36624
    10.70000    90.00000   360.00000     3.46337    90.00000   360.00000     3.36636
    10.80000    90.00000   360.00000     3.46348    90.00000   360.00000     3.36647
    10.90000    90.00000   360.00000     3.46359    90.00000   360.00000     3.36659
    11.00000    90.00000   360.00000     3.46370    90.00000   360.00000     3.36670
    11.10000    90.00000   360.00000     3.46381    90.00000   360.00000     3.36682
    11.20000    90.00000   360.00000     3.46392    90.00000   360.00000     3.36694
    11.30000    90.00000   360.00000     3.46403    90.00000   360.00000     3.36705
    11.40000    90.00000   360.00000     3.46414    90.00000   360.00000     3.36717
    11.50000    90.00000   360.00000     3.46425    90.00000   360.00000     3.36728
    11.60000    90.00000   360.00000     3.46436    90.00000   360.00000     3.36740
    11.70000    90.00000   360.00000     3.46447    90.00000   360.00000     3.36751
    11.80000    90.00000   360.00000     3.46458    90.00000   360.00000     3.36763
    11.90000    90.00000   360.00000     3.46469    90.00000   360.00000     3.36775
    12.00000    90.00000   360.00000     3.46480    90.00000   360.00000     3.36786
    12.10000    90.00000   360.00000     3.46491    90.00000   360.00000     3.36798
    12.20000    90.00000   360.00000     3.46502    90.00000   360.00000     3.36809
    12.30000    90.00000   360.00000     3.46513    90.00000   360.00000     3.36821
    12.40000    90.00000   360.00000     3.46524    90.00000   360.00000     3.36832
    12.50000    90.00000   360.00000     3.46535    90.00000   360.00000     3.36844
    12.60000    90.00000   360.00000     3.46546    90.00000   360.00000     3.36855
    12.70000    90.00000   360.00000     3.46557    90.00000   360.00000     3.36867
    12.80000    90.00000   360.00000     3.46568    90.00000   360.00000     3.36879
    12.90000    90.00000   360.00000     3.46579    90.00000   360.00000     3.36890
    13.00000    90.00000   360.00000     3.46590    90.00000   360.00000     3.36902
    13.10000    90.00000   360.00000     3.46601    90.00000   360.00000     3.36913
    13.20000    90.00000   360.00000     3.46611    90.00000   360.00000     3.36925
    13.30000    90.00000   360.00000     3.46622    90.00000   360.00000     3.36936
    13.40000    90.00000   360.00000     3.46633    90.00000   360.00000     3.36948
    13.50000    90.00000   360.00000     3.46644    90.00000   360.00000     3.36959
    13.60000    90.00000   360.00000     3.46655    90.00000   360.00000     3.36971
    13.70000    90.00000   360.00000     3.46666    90.00000   360.00000     3.36982
    13.80000    90.00000   360.00000     3.46677    90.00000   360.00000     3.36994
    13.90000    90.00000   360.00000     3.46688    90.00000   360.00000     3.37005
    14.00000    90.00000   360.00000     3.46699    90.00000   360.00000     3.37017
    14.10000    90.00000   360.00000     3.46710    90.00000   360.00000     3.37028
    14.20000    90.00000   360.00000     3.46720    90.00000   360.00000     3.37040
    14.30000    90.00000   360.00000     3.46731    90.00000   360.00000     3.37051
    14.40000    90.00000   360.00000     3.46742    90.00000   360.00000     3.37063
    14.50000    90.00000   360.00000     3.46753    90.00000   360.00000     3.37074
    14.60000    90.00000   360.00000     3.46764    90.00000   360.00000     3.37086
    14.70000    90.00000   360.00000     3.46775    90.00000   360.00000     3.37097
    14.80000    90.00000   360.00000     3.46786    90.00000   360.00000     3.37109
    14.90000    90.00000   360.00000     3.46797    90.00000   360.00000     3.37120
    15.00000    90.00000   360.00000     3.46808    90.00000   360.00000     3.37132
    15.10000    90.00000   360.00000     3.46818    90.00000   360.00000     3.37143
    15.20000    90.00000   360.00000     3.46829    90.00000   360.00000     3.37155
    15.30000    90.00000   360.00000     3.46840    90.00000   360.00000     3.37166
    15.40000    90.00000   360.00000     3.46851    90.00000   360.00000     3.37177
    15.50000    90.00000   360.00000     3.46862    90.00000   360.00000     3.37189
    15.60000    90.00000   360.00000     3.46873    90.00000   360.00000     3.37200
    15.70000    90.00000   360.00000     3.46884    90.00000   360.00000     3.37212
    15.80000    90.00000   360.00000     3.46894    90.00000   360.00000     3.37223
    15.90000    90.00000   360.00000     3.46905    90.00000   360.00000     3.37235
    16.00000    90.00000   360.00000     3.46916    90.00000   360.00000     3.37246
    16.10000    90.00000   360.00000     3.46927    90.00000   360.00000     3.37258
    16.20000    90.00000   360.00000     3.46938    90.00000   360.00000     3.37269
    16.30000    90.00000   360.00000     3.46949    90.00000   360.00000     3.37280
    16.40000    90.00000   360.00000     3.46959    90.00000   360.00000     3.37292
    16.50000    90.00000   360.00000     3.46970    90.00000   360.00000     3.37303
    16.60000    90.00000   360.00000     3.46981    90.00000   360.00000     3.37315
    16.70000    90.00000   360.00000     3.46992    90.00000   360.00000     3.37326
    16.80000    90.00000   360.00000     3.47003    90.00000   360.00000     3.37338
    16.90000    90.00000   360.00000     3.47013    90.00000   360.00000     3.37349
    17.00000    90.00000   360.00000     3.47024    90.00000   360.00000     3.37360
    17.10000    90.00000   360.00000     3.47035    90.00000   360.00000     3.37372
    17.20000    90.00000   360.00000     3.47046    90.00000   360.00000     3.37383
    17.30000    90.00000   360.00000     3.47057    90.00000   360.00000     3.37395
    17.40000    90.00000   360.00000     3.47067    90.00000   360.00000     3.37406
    17.50000    90.00000   360.00000     3.47078    90.00000   360.00000     3.37417
    17.60000    90.00000   360.00000     3.47089    90.00000   360.00000     3.37429
    17.70000    90.00000   360.00000     3.47100    90.00000   360.00000     3.37440
    17.80000    90.00000   360.00000     3.47111    90.00000   360.00000     3.37452
    17.90000    90.00000   360.00000     3.47121    90.00000   360.00000     3.37463
    18.00000    90.00000   360.00000     3.47132    90.00000   360.00000     3.37474
    18.10000    90.00000   360.00000     3.47143    90.00000   360.00000     3.37486
    18.20000    90.00000   360.00000     3.47154    90.00000   360.00000     3.37497
    18.30000    90.00000   360.00000     3.47164    90.00000   360.00000     3.37508
    18.40000    90.00000   360.00000     3.47175    90.00000   360.00000     3.37520
    18.50000    90.00000   360.00000     3.47186    90.00000   360.00000     3.37531
    18.60000    90.00000   360.00000     3.47197    90.00000   360.00000     3.37543
    18.70000    90.00000   360.00000     3.47207    90.00000   360.00000     3.37554
    18.80000    90.00000   360.00000     3.47218    90.00000   360.00000     3.37565
    18.90000    90.00000   360.00000     3.47229    90.00000   360.00000     3.37577
    19.00000    90.00000   360.00000     3.47240    90.00000   360.00000     3.37588
    19.10000    90.00000   360.00000     3.47250    90.00000   360.00000     3.37599
    19.20000    90.00000   360.00000     3.47261    90.00000   360.00000     3.37611
    19.30000    90.00000   360.00000     3.47272    90.00000   360.00000     3.37622
    19.40000    90.00000   360.00000     3.47283    90.00000   360.00000     3.37633
    19.50000    90.00000   360.00000     3.47293    90.00000   360.00000     3.37645
    19.60000    90.00000   360.00000     3.47304    90.00000   360.00000     3.37656
    19.70000    90.00000   360.00000     3.47315    90.00000   360.00000     3.37667
    19.80000    90.00000   360.00000     3.47325    90.00000   360.00000     3.37679
    19.90000    90.00000   360.00000     3.47336    90.00000   360.00000     3.37690
    20.00000    90.00000   360.00000     3.47347    90.00000   360.00000     3.37701
    20.10000    90.00000   360.00000     3.47358    90.00000   360.00000     3.37713
    20.20000    90.00000   360.00000     3.47368    90.00000   360.00000     3.37724
    20.30000    90.00000   360.00000     3.47379    90.00000   360.00000     3.37735
    20.40000    90.00000   360.00000     3.47390    90.00000   360.00000     3.37747
    20.50000    90.00000   360.00000     3.47400    90.00000   360.00000     3.37758
    20.60000    90.00000   360.00000     3.47411    90.00000   360.00000     3.37769
    20.70000    90.00000   360.00000     3.47422    90.00000   360.00000     3.37780
    20.80000    90.00000   360.00000     3.47433    90.00000   360.00000     3.37792
    20.90000    90.00000   360.00000     3.47443    90.00000   360.00000     3.37803
    21.00000    90.00000   360.00000     3.47454    90.00000   360.00000     3.37814
    21.10000    90.00000   360.00000     3.47465    90.00000   360.00000     3.37826
    21.20000    90.00000   360.00000     3.47475    90.00000   360.00000     3.37837
    21.30000    90.00000   360.00000     3.47486    90.00000   360.00000     3.37848
    21.40000    90.00000   360.00000     3.47497    90.00000   360.00000     3.37859
    21.50000    90.00000   360.00000     3.47507    90.00000   360.00000     3.37871
    21.60000    90.00000   360.00000     3.47518    90.00000   360.00000     3.37882
    21.70000    90.00000   360.00000     3.47529    90.00000   360.00000     3.37893
    21.80000    90.00000   360.00000     3.47539    90.00000   360.00000     3.37905
    21.90000    90.00000   360.00000     3.47550    90.00000   360.00000     3.37916
    22.00000    90.00000   360.00000     3.47561    90.00000   360.00000     3.37927
    22.10000    90.00000   360.00000     3.47571    90.00000   360.00000     3.37938
    22.20000    90.00000   360.00000     3.47582    90.00000   360.00000     3.37950
    22.30000    90.00000   360.00000     3.47592    90.00000   360.00000     3.37961
    22.40000    90.00000   360.00000     3.47603    90.00000   360.00000     3.37972
    22.50000    90.00000   360.00000     3.47614    90.00000   360.00000     3.37983
    22.60000    90.00000   360.00000     3.47624    90.00000   360.00000     3.37995
    22.70000    90.00000   360.00000     3.47635    90.00000   360.00000     3.38006
    22.80000    90.00000   360.00000     3.47646    90.00000   360.00000     3.38017
    22.90000    90.00000   360.00000     3.47656    90.00000   360.00000     3.38028
    23.00000    90.00000   360.00000     3.47667    90.00000   360.00000     3.38039
    23.10000    90.00000   360.00000     3.47677    90.00000   360.00000     3.38051
    23.20000    90.00000   360.00000     3.47688    90.00000   360.00000     3.38062
    23.30000    90.00000   360.00000     3.47699    90.00000   360.00000     3.38073
