 # applied field (T), theta (degree), phi (degree), abs for RE 3-4
     0.00000   179.81139   315.00000     4.37789   179.81139   225.00000     4.37789
     0.10000   179.79789   218.85919     4.37792   179.55334   198.26454     4.37785
     0.20000   179.53603   195.02789     4.37795   179.27011   191.59187     4.37780
     0.30000   179.20476   188.15445     4.37797   178.93437   188.33730     4.37774
     0.40000   178.91685   185.63816     4.37797   178.64498   186.83777     4.37767
     0.50000   178.62772   184.18242     4.37797   178.35488   185.86827     4.37760
     0.60000   178.33797   183.23549     4.37796   178.06433   185.19116     4.37752
     0.70000   177.99953   182.47990     4.37794   177.72499   184.62134     4.37741
     0.80000   177.70913   182.01096     4.37792   177.43379   184.25447     4.37731
     0.90000   177.41854   181.64858     4.37788   177.14234   183.96352     4.37721
     1.00000   177.12777   181.36044     4.37784   176.85065   183.72748     4.37709
     1.10000   176.78839   181.09148     4.37778   176.51011   183.50297     4.37695
     1.20000   176.49727   180.90299     4.37772   176.21791   183.34386     4.37682
     1.30000   176.20598   180.74407     4.37766   175.92546   183.20842     4.37668
     1.40000   175.86599   180.58786     4.37757   175.58401   183.07391     4.37651
     1.50000   175.57432   180.47348     4.37748   175.29101   182.97509     4.37636
     1.60000   175.28246   180.37371     4.37739   174.99772   182.88858     4.37620
     1.70000   174.94175   180.27255     4.37728   174.65526   182.80035     4.37600
     1.80000   174.64943   180.19640     4.37717   174.36134   182.73409     4.37582
     1.90000   174.35688   180.12850     4.37705   174.06711   182.67503     4.37564
     2.00000   174.01532   180.05821     4.37690   173.72349   182.61375     4.37541
     2.10000   173.72223   180.00428     4.37677   173.42854   182.56707     4.37521
     2.20000   173.38000   179.94785     4.37660   173.08404   182.51823     4.37496
     2.30000   173.08631   179.90413     4.37645   172.78831   182.48076     4.37475
     2.40000   172.74334   179.85798     4.37627   172.44287   182.44131     4.37448
     2.50000   172.44898   179.82192     4.37610   172.14630   182.41091     4.37425
     2.60000   172.10519   179.78358     4.37589   171.79985   182.37874     4.37397
     2.70000   171.81010   179.75342     4.37571   171.50237   182.35386     4.37372
     2.80000   171.46543   179.72115     4.37549   171.15484   182.32745     4.37343
     2.90000   171.12025   179.69160     4.37525   170.80669   182.30365     4.37312
     3.00000   170.82391   179.66814     4.37504   170.50771   182.28521     4.37285
     3.10000   170.47772   179.64284     4.37479   170.15837   182.26556     4.37252
     3.20000   170.13097   179.61948     4.37453   169.80835   182.24784     4.37219
     3.30000   169.83323   179.60079     4.37429   169.50773   182.23412     4.37190
     3.40000   169.48535   179.58050     4.37401   169.15642   182.21950     4.37155
     3.50000   169.13685   179.56163     4.37372   168.80438   182.20633     4.37119
     3.60000   168.78769   179.54404     4.37342   168.45160   182.19450     4.37082
     3.70000   168.43786   179.52761     4.37311   168.09805   182.18389     4.37045
     3.80000   168.08733   179.51222     4.37279   167.74372   182.17439     4.37006
     3.90000   167.73608   179.49778     4.37245   167.38858   182.16593     4.36967
     4.00000   167.38410   179.48421     4.37211   167.03262   182.15842     4.36927
     4.10000   166.98096   179.46969     4.37172   166.62485   182.15084     4.36881
     4.20000   166.62732   179.45771     4.37136   166.26707   182.14513     4.36839
     4.30000   166.27288   179.44638     4.37099   165.90841   182.14017     4.36797
     4.40000   165.86686   179.43418     4.37056   165.49749   182.13530     4.36748
     4.50000   165.51062   179.42405     4.37017   165.13689   182.13178     4.36704
     4.60000   165.10250   179.41309     4.36972   164.72371   182.12843     4.36653
     4.70000   164.74438   179.40395     4.36931   164.36109   182.12615     4.36608
     4.80000   164.33405   179.39402     4.36884   163.94556   182.12412     4.36555
     4.90000   163.92251   179.38456     4.36835   163.52875   182.12273     4.36502
     5.00000   163.50972   179.37553     4.36786   163.11063   182.12193     4.36448
     5.10000   163.09566   179.36689     4.36735   162.69118   182.12168     4.36393
     5.20000   162.68029   179.35859     4.36684   162.27038   182.12194     4.36338
     5.30000   162.26359   179.35060     4.36631   161.84820   182.12268     4.36282
     5.40000   161.79326   179.34197     4.36571   161.37167   182.12401     4.36218
     5.50000   161.37364   179.33454     4.36517   160.94652   182.12567     4.36161
     5.60000   160.89996   179.32646     4.36455   160.46660   182.12797     4.36095
     5.70000   160.42446   179.31863     4.36391   159.98484   182.13072     4.36030
     5.80000   159.94711   179.31100     4.36327   159.50123   182.13391     4.35963
     5.90000   159.46786   179.30356     4.36262   159.01575   182.13749     4.35896
     6.00000   158.93318   179.29548     4.36188   158.47419   182.14187     4.35822
     6.10000   158.39608   179.28756     4.36113   157.93026   182.14667     4.35746
     6.20000   157.85653   179.27976     4.36038   157.38396   182.15186     4.35671
     6.30000   157.31449   179.27206     4.35961   156.83526   182.15741     4.35595
     6.40000   156.71539   179.26368     4.35876   156.22898   182.16386     4.35511
     6.50000   156.11319   179.25534     4.35789   155.61978   182.17068     4.35427
     6.60000   155.45272   179.24628     4.35694   154.95191   182.17847     4.35335
     6.70000   154.78846   179.23720     4.35599   154.28055   182.18661     4.35244
     6.80000   154.06459   179.22732     4.35494   153.54936   182.19577     4.35146
     6.90000    89.45622   177.80042     4.33698    90.54378   182.19958     4.33698
     7.00000    89.45627   177.80061     4.33694    90.54373   182.19939     4.33694
     7.10000    89.45632   177.80081     4.33689    90.54368   182.19919     4.33689
     7.20000    89.45637   177.80100     4.33684    90.54363   182.19900     4.33684
     7.30000    89.45643   177.80119     4.33680    90.54357   182.19881     4.33680
     7.40000    89.45648   177.80138     4.33675    90.54352   182.19862     4.33675
     7.50000    89.45653   177.80157     4.33670    90.54347   182.19843     4.33670
     7.60000    89.45658   177.80176     4.33666    90.54342   182.19824     4.33666
     7.70000    89.45664   177.80196     4.33661    90.54336   182.19804     4.33661
     7.80000    89.45669   177.80215     4.33656    90.54331   182.19785     4.33656
     7.90000    89.45674   177.80234     4.33652    90.54326   182.19766     4.33652
     8.00000    89.45680   177.80253     4.33647    90.54320   182.19747     4.33647
     8.10000    89.45685   177.80272     4.33642    90.54315   182.19728     4.33642
     8.20000    89.45690   177.80291     4.33638    90.54310   182.19709     4.33638
     8.30000    89.45695   177.80310     4.33633    90.54305   182.19690     4.33633
     8.40000    89.45700   177.80329     4.33628    90.54300   182.19671     4.33628
     8.50000    89.45706   177.80348     4.33624    90.54294   182.19652     4.33624
     8.60000    89.45711   177.80367     4.33619    90.54289   182.19633     4.33619
     8.70000    89.45716   177.80387     4.33614    90.54284   182.19613     4.33614
     8.80000    89.45721   177.80406     4.33610    90.54279   182.19594     4.33610
     8.90000    89.45727   177.80425     4.33605    90.54273   182.19575     4.33605
     9.00000    89.45732   177.80444     4.33600    90.54268   182.19556     4.33600
     9.10000    89.45737   177.80463     4.33596    90.54263   182.19537     4.33596
     9.20000    89.45742   177.80482     4.33591    90.54258   182.19518     4.33591
     9.30000    89.45748   177.80501     4.33586    90.54252   182.19499     4.33586
     9.40000    89.45753   177.80520     4.33582    90.54247   182.19480     4.33582
     9.50000    89.45758   177.80539     4.33577    90.54242   182.19461     4.33577
     9.60000    89.45763   177.80558     4.33572    90.54237   182.19442     4.33572
     9.70000    89.45768   177.80577     4.33568    90.54232   182.19423     4.33568
     9.80000    89.45774   177.80596     4.33563    90.54226   182.19404     4.33563
     9.90000    89.45779   177.80615     4.33558    90.54221   182.19385     4.33558
    10.00000    89.45784   177.80633     4.33554    90.54216   182.19367     4.33554
    10.10000    89.45789   177.80652     4.33549    90.54211   182.19348     4.33549
    10.20000    89.45794   177.80671     4.33544    90.54206   182.19329     4.33544
    10.30000    89.45800   177.80690     4.33540    90.54200   182.19310     4.33540
    10.40000    89.45805   177.80709     4.33535    90.54195   182.19291     4.33535
    10.50000    89.45810   177.80728     4.33530    90.54190   182.19272     4.33530
    10.60000    89.45815   177.80747     4.33526    90.54185   182.19253     4.33526
    10.70000    89.45820   177.80766     4.33521    90.54180   182.19234     4.33521
    10.80000    89.45826   177.80785     4.33516    90.54174   182.19215     4.33516
    10.90000    89.45831   177.80804     4.33512    90.54169   182.19196     4.33512
    11.00000    89.45836   177.80822     4.33507    90.54164   182.19178     4.33507
    11.10000    89.45841   177.80841     4.33502    90.54159   182.19159     4.33502
    11.20000    89.45846   177.80860     4.33498    90.54154   182.19140     4.33498
    11.30000    89.45851   177.80879     4.33493    90.54149   182.19121     4.33493
    11.40000    89.45857   177.80898     4.33488    90.54143   182.19102     4.33488
    11.50000    89.45862   177.80917     4.33484    90.54138   182.19083     4.33484
    11.60000    89.45867   177.80935     4.33479    90.54133   182.19065     4.33479
    11.70000    89.45872   177.80954     4.33474    90.54128   182.19046     4.33474
    11.80000    89.45877   177.80973     4.33470    90.54123   182.19027     4.33470
    11.90000    89.45882   177.80992     4.33465    90.54118   182.19008     4.33465
    12.00000    89.45888   177.81010     4.33460    90.54112   182.18990     4.33460
    12.10000    89.45893   177.81029     4.33456    90.54107   182.18971     4.33456
    12.20000    89.45898   177.81048     4.33451    90.54102   182.18952     4.33451
    12.30000    89.45903   177.81067     4.33446    90.54097   182.18933     4.33446
    12.40000    89.45908   177.81085     4.33442    90.54092   182.18915     4.33442
    12.50000    89.45913   177.81104     4.33437    90.54087   182.18896     4.33437
    12.60000    89.45918   177.81123     4.33432    90.54082   182.18877     4.33432
    12.70000    89.45924   177.81142     4.33428    90.54076   182.18858     4.33428
    12.80000    89.45929   177.81160     4.33423    90.54071   182.18840     4.33423
    12.90000    89.45934   177.81179     4.33418    90.54066   182.18821     4.33418
    13.00000    89.45939   177.81198     4.33413    90.54061   182.18802     4.33413
    13.10000    89.45944   177.81216     4.33409    90.54056   182.18784     4.33409
    13.20000    89.45949   177.81235     4.33404    90.54051   182.18765     4.33404
    13.30000    89.45954   177.81254     4.33399    90.54046   182.18746     4.33399
    13.40000    89.45959   177.81272     4.33395    90.54041   182.18728     4.33395
    13.50000    89.45965   177.81291     4.33390    90.54035   182.18709     4.33390
    13.60000    89.45970   177.81310     4.33385    90.54030   182.18690     4.33385
    13.70000    89.45975   177.81328     4.33381    90.54025   182.18672     4.33381
    13.80000    89.45980   177.81347     4.33376    90.54020   182.18653     4.33376
    13.90000    89.45985   177.81365     4.33371    90.54015   182.18635     4.33371
    14.00000    89.45990   177.81384     4.33367    90.54010   182.18616     4.33367
    14.10000    89.45995   177.81403     4.33362    90.54005   182.18597     4.33362
    14.20000    89.46000   177.81421     4.33357    90.54000   182.18579     4.33357
    14.30000    89.46005   177.81440     4.33353    90.53995   182.18560     4.33353
    14.40000    89.46011   177.81458     4.33348    90.53989   182.18542     4.33348
    14.50000    89.46016   177.81477     4.33343    90.53984   182.18523     4.33343
    14.60000    89.46021   177.81495     4.33338    90.53979   182.18505     4.33338
    14.70000    89.46026   177.81514     4.33334    90.53974   182.18486     4.33334
    14.80000    89.46031   177.81532     4.33329    90.53969   182.18468     4.33329
    14.90000    89.46036   177.81551     4.33324    90.53964   182.18449     4.33324
    15.00000    89.46041   177.81569     4.33320    90.53959   182.18431     4.33320
    15.10000    89.46046   177.81588     4.33315    90.53954   182.18412     4.33315
    15.20000    89.46051   177.81606     4.33310    90.53949   182.18394     4.33310
    15.30000    89.46056   177.81625     4.33306    90.53944   182.18375     4.33306
    15.40000    89.46061   177.81643     4.33301    90.53939   182.18357     4.33301
    15.50000    89.46067   177.81662     4.33296    90.53933   182.18338     4.33296
    15.60000    89.46072   177.81680     4.33291    90.53928   182.18320     4.33291
    15.70000    89.46077   177.81699     4.33287    90.53923   182.18301     4.33287
    15.80000    89.46082   177.81717     4.33282    90.53918   182.18283     4.33282
    15.90000    89.46087   177.81736     4.33277    90.53913   182.18264     4.33277
    16.00000    89.46092   177.81754     4.33273    90.53908   182.18246     4.33273
    16.10000    89.46097   177.81772     4.33268    90.53903   182.18228     4.33268
    16.20000    89.46102   177.81791     4.33263    90.53898   182.18209     4.33263
    16.30000    89.46107   177.81809     4.33259    90.53893   182.18191     4.33259
    16.40000    89.46112   177.81828     4.33254    90.53888   182.18172     4.33254
    16.50000    89.46117   177.81846     4.33249    90.53883   182.18154     4.33249
    16.60000    89.46122   177.81864     4.33244    90.53878   182.18136     4.33244
    16.70000    89.46127   177.81883     4.33240    90.53873   182.18117     4.33240
    16.80000    89.46132   177.81901     4.33235    90.53868   182.18099     4.33235
    16.90000    89.46137   177.81919     4.33230    90.53863   182.18081     4.33230
    17.00000    89.46142   177.81938     4.33226    90.53858   182.18062     4.33226
    17.10000    89.46147   177.81956     4.33221    90.53853   182.18044     4.33221
    17.20000    89.46152   177.81974     4.33216    90.53848   182.18026     4.33216
    17.30000    89.46157   177.81993     4.33211    90.53843   182.18007     4.33211
    17.40000    89.46163   177.82011     4.33207    90.53837   182.17989     4.33207
    17.50000    89.46168   177.82029     4.33202    90.53832   182.17971     4.33202
    17.60000    89.46173   177.82048     4.33197    90.53827   182.17952     4.33197
    17.70000    89.46178   177.82066     4.33193    90.53822   182.17934     4.33193
    17.80000    89.46183   177.82084     4.33188    90.53817   182.17916     4.33188
    17.90000    89.46188   177.82102     4.33183    90.53812   182.17898     4.33183
    18.00000    89.46193   177.82121     4.33178    90.53807   182.17879     4.33178
    18.10000    89.46198   177.82139     4.33174    90.53802   182.17861     4.33174
    18.20000    89.46203   177.82157     4.33169    90.53797   182.17843     4.33169
    18.30000    89.46208   177.82175     4.33164    90.53792   182.17825     4.33164
    18.40000    89.46213   177.82194     4.33160    90.53787   182.17806     4.33160
    18.50000    89.46218   177.82212     4.33155    90.53782   182.17788     4.33155
    18.60000    89.46223   177.82230     4.33150    90.53777   182.17770     4.33150
    18.70000    89.46228   177.82248     4.33145    90.53772   182.17752     4.33145
    18.80000    89.46233   177.82266     4.33141    90.53767   182.17734     4.33141
    18.90000    89.46238   177.82285     4.33136    90.53762   182.17715     4.33136
    19.00000    89.46243   177.82303     4.33131    90.53757   182.17697     4.33131
    19.10000    89.46248   177.82321     4.33126    90.53752   182.17679     4.33126
    19.20000    89.46253   177.82339     4.33122    90.53747   182.17661     4.33122
    19.30000    89.46258   177.82357     4.33117    90.53742   182.17643     4.33117
    19.40000    89.46263   177.82375     4.33112    90.53737   182.17625     4.33112
    19.50000    89.46268   177.82394     4.33108    90.53732   182.17606     4.33108
    19.60000    89.46273   177.82412     4.33103    90.53727   182.17588     4.33103
    19.70000    89.46278   177.82430     4.33098    90.53722   182.17570     4.33098
    19.80000    89.46283   177.82448     4.33093    90.53717   182.17552     4.33093
    19.90000    89.46288   177.82466     4.33089    90.53712   182.17534     4.33089
    20.00000    89.46293   177.82484     4.33084    90.53707   182.17516     4.33084
    20.10000    89.46297   177.82502     4.33079    90.53703   182.17498     4.33079
    20.20000    89.46302   177.82520     4.33075    90.53698   182.17480     4.33075
    20.30000    89.46307   177.82538     4.33070    90.53693   182.17462     4.33070
    20.40000    89.46312   177.82556     4.33065    90.53688   182.17444     4.33065
    20.50000    89.46317   177.82574     4.33060    90.53683   182.17426     4.33060
    20.60000    89.46322   177.82592     4.33056    90.53678   182.17408     4.33056
    20.70000    89.46327   177.82610     4.33051    90.53673   182.17390     4.33051
    20.80000    89.46332   177.82628     4.33046    90.53668   182.17372     4.33046
    20.90000    89.46337   177.82646     4.33041    90.53663   182.17354     4.33041
    21.00000    89.46342   177.82664     4.33037    90.53658   182.17336     4.33037
    21.10000    89.46347   177.82682     4.33032    90.53653   182.17318     4.33032
    21.20000    89.46352   177.82700     4.33027    90.53648   182.17300     4.33027
    21.30000    89.46357   177.82718     4.33022    90.53643   182.17282     4.33022
    21.40000    89.46362   177.82736     4.33018    90.53638   182.17264     4.33018
    21.50000    89.46367   177.82754     4.33013    90.53633   182.17246     4.33013
    21.60000    89.46372   177.82772     4.33008    90.53628   182.17228     4.33008
    21.70000    89.46377   177.82790     4.33003    90.53623   182.17210     4.33003
    21.80000    89.46382   177.82808     4.32999    90.53618   182.17192     4.32999
    21.90000    89.46387   177.82826     4.32994    90.53613   182.17174     4.32994
    22.00000    89.46391   177.82844     4.32989    90.53609   182.17156     4.32989
    22.10000    89.46396   177.82862     4.32985    90.53604   182.17138     4.32985
    22.20000    89.46401   177.82880     4.32980    90.53599   182.17120     4.32980
    22.30000    89.46406   177.82898     4.32975    90.53594   182.17102     4.32975
    22.40000    89.46411   177.82916     4.32970    90.53589   182.17084     4.32970
    22.50000    89.46416   177.82934     4.32966    90.53584   182.17066     4.32966
    22.60000    89.46421   177.82951     4.32961    90.53579   182.17049     4.32961
    22.70000    89.46426   177.82969     4.32956    90.53574   182.17031     4.32956
    22.80000    89.46431   177.82987     4.32951    90.53569   182.17013     4.32951
    22.90000    89.46436   177.83005     4.32947    90.53564   182.16995     4.32947
    23.00000    89.46441   177.83023     4.32942    90.53559   182.16977     4.32942
    23.10000    89.46446   177.83041     4.32937    90.53554   182.16959     4.32937
    23.20000    89.46450   177.83058     4.32932    90.53550   182.16942     4.32932
    23.30000    89.46455   177.83076     4.32928    90.53545   182.16924     4.32928
