 # applied field (T), theta (degree), phi (degree), abs for RE 3-4
     0.00000     0.00000     0.00000     0.29456     0.00000     0.00000     0.29456
     0.10000     0.37918    10.09810     0.29457     0.37918    79.90190     0.29457
     0.20000     0.75858    10.10422     0.29458     0.75858    79.89578     0.29458
     0.30000     1.13844    10.11440     0.29461     1.13844    79.88560     0.29461
     0.40000    90.00000     4.38525     0.34808    90.00000    85.61475     0.34808
     0.50000    90.00000     4.39549     0.34807    90.00000    85.60451     0.34807
     0.60000    90.00000     4.40574     0.34806    90.00000    85.59426     0.34806
     0.70000    90.00000     4.41598     0.34805    90.00000    85.58402     0.34805
     0.80000    90.00000     4.42623     0.34804    90.00000    85.57377     0.34804
     0.90000    90.00000     4.43647     0.34803    90.00000    85.56353     0.34803
     1.00000    90.00000     4.44671     0.34802    90.00000    85.55329     0.34802
     1.10000    90.00000     4.45695     0.34801    90.00000    85.54305     0.34801
     1.20000    90.00000     4.46719     0.34800    90.00000    85.53281     0.34800
     1.30000    90.00000     4.47743     0.34799    90.00000    85.52257     0.34799
     1.40000    90.00000     4.48767     0.34798    90.00000    85.51233     0.34798
     1.50000    90.00000     4.49790     0.34797    90.00000    85.50210     0.34797
     1.60000    90.00000     4.50814     0.34796    90.00000    85.49186     0.34796
     1.70000    90.00000     4.51837     0.34795    90.00000    85.48163     0.34795
     1.80000    90.00000     4.52860     0.34794    90.00000    85.47140     0.34794
     1.90000    90.00000     4.53884     0.34792    90.00000    85.46116     0.34792
     2.00000    90.00000     4.54907     0.34791    90.00000    85.45093     0.34791
     2.10000    90.00000     4.55930     0.34790    90.00000    85.44070     0.34790
     2.20000    90.00000     4.56952     0.34789    90.00000    85.43048     0.34789
     2.30000    90.00000     4.57975     0.34788    90.00000    85.42025     0.34788
     2.40000    90.00000     4.58998     0.34787    90.00000    85.41002     0.34787
     2.50000    90.00000     4.60020     0.34786    90.00000    85.39980     0.34786
     2.60000    90.00000     4.61042     0.34785    90.00000    85.38958     0.34785
     2.70000    90.00000     4.62065     0.34784    90.00000    85.37935     0.34784
     2.80000    90.00000     4.63087     0.34783    90.00000    85.36913     0.34783
     2.90000    90.00000     4.64109     0.34782    90.00000    85.35891     0.34782
     3.00000    90.00000     4.65131     0.34781    90.00000    85.34869     0.34781
     3.10000    90.00000     4.66153     0.34780    90.00000    85.33847     0.34780
     3.20000    90.00000     4.67174     0.34779    90.00000    85.32826     0.34779
     3.30000    90.00000     4.68196     0.34778    90.00000    85.31804     0.34778
     3.40000    90.00000     4.69217     0.34777    90.00000    85.30783     0.34777
     3.50000    90.00000     4.70239     0.34776    90.00000    85.29761     0.34776
     3.60000    90.00000     4.71260     0.34775    90.00000    85.28740     0.34775
     3.70000    90.00000     4.72281     0.34774    90.00000    85.27719     0.34774
     3.80000    90.00000     4.73302     0.34773    90.00000    85.26698     0.34773
     3.90000    90.00000     4.74323     0.34772    90.00000    85.25677     0.34772
     4.00000    90.00000     4.75344     0.34771    90.00000    85.24656     0.34771
     4.10000    90.00000     4.76364     0.34770    90.00000    85.23636     0.34770
     4.20000    90.00000     4.77385     0.34769    90.00000    85.22615     0.34769
     4.30000    90.00000     4.78405     0.34768    90.00000    85.21595     0.34768
     4.40000    90.00000     4.79426     0.34767    90.00000    85.20574     0.34767
     4.50000    90.00000     4.80446     0.34766    90.00000    85.19554     0.34766
     4.60000    90.00000     4.81466     0.34765    90.00000    85.18534     0.34765
     4.70000    90.00000     4.82486     0.34764    90.00000    85.17514     0.34764
     4.80000    90.00000     4.83506     0.34763    90.00000    85.16494     0.34763
     4.90000    90.00000     4.84526     0.34762    90.00000    85.15474     0.34762
     5.00000    90.00000     4.85545     0.34761    90.00000    85.14455     0.34761
     5.10000    90.00000     4.86565     0.34760    90.00000    85.13435     0.34760
     5.20000    90.00000     4.87584     0.34759    90.00000    85.12416     0.34759
     5.30000    90.00000     4.88604     0.34758    90.00000    85.11396     0.34758
     5.40000    90.00000     4.89623     0.34757    90.00000    85.10377     0.34757
     5.50000    90.00000     4.90642     0.34756    90.00000    85.09358     0.34756
     5.60000    90.00000     4.91661     0.34756    90.00000    85.08339     0.34756
     5.70000    90.00000     4.92680     0.34755    90.00000    85.07320     0.34755
     5.80000    90.00000     4.93699     0.34754    90.00000    85.06301     0.34754
     5.90000    90.00000     4.94717     0.34753    90.00000    85.05283     0.34753
     6.00000    90.00000     4.95736     0.34752    90.00000    85.04264     0.34752
     6.10000    90.00000     4.96754     0.34751    90.00000    85.03246     0.34751
     6.20000    90.00000     4.97773     0.34750    90.00000    85.02227     0.34750
     6.30000    90.00000     4.98791     0.34749    90.00000    85.01209     0.34749
     6.40000    90.00000     4.99809     0.34748    90.00000    85.00191     0.34748
     6.50000    90.00000     5.00827     0.34747    90.00000    84.99173     0.34747
     6.60000    90.00000     5.01845     0.34746    90.00000    84.98155     0.34746
     6.70000    90.00000     5.02862     0.34745    90.00000    84.97138     0.34745
     6.80000    90.00000     5.03880     0.34744    90.00000    84.96120     0.34744
     6.90000    90.00000     5.04897     0.34743    90.00000    84.95103     0.34743
     7.00000    90.00000     5.05915     0.34742    90.00000    84.94085     0.34742
     7.10000    90.00000     5.06932     0.34741    90.00000    84.93068     0.34741
     7.20000    90.00000     5.07949     0.34740    90.00000    84.92051     0.34740
     7.30000    90.00000     5.08966     0.34739    90.00000    84.91034     0.34739
     7.40000    90.00000     5.09983     0.34738    90.00000    84.90017     0.34738
     7.50000    90.00000     5.11000     0.34737    90.00000    84.89000     0.34737
     7.60000    90.00000     5.12017     0.34736    90.00000    84.87983     0.34736
     7.70000    90.00000     5.13033     0.34736    90.00000    84.86967     0.34736
     7.80000    90.00000     5.14050     0.34735    90.00000    84.85950     0.34735
     7.90000    90.00000     5.15066     0.34734    90.00000    84.84934     0.34734
     8.00000    90.00000     5.16083     0.34733    90.00000    84.83917     0.34733
     8.10000    90.00000     5.17099     0.34732    90.00000    84.82901     0.34732
     8.20000    90.00000     5.18115     0.34731    90.00000    84.81885     0.34731
     8.30000    90.00000     5.19131     0.34730    90.00000    84.80869     0.34730
     8.40000    90.00000     5.20146     0.34729    90.00000    84.79854     0.34729
     8.50000    90.00000     5.21162     0.34728    90.00000    84.78838     0.34728
     8.60000    90.00000     5.22178     0.34727    90.00000    84.77822     0.34727
     8.70000    90.00000     5.23193     0.34726    90.00000    84.76807     0.34726
     8.80000    90.00000     5.24208     0.34725    90.00000    84.75792     0.34725
     8.90000    90.00000     5.25224     0.34724    90.00000    84.74776     0.34724
     9.00000    90.00000     5.26239     0.34724    90.00000    84.73761     0.34724
     9.10000    90.00000     5.27254     0.34723    90.00000    84.72746     0.34723
     9.20000    90.00000     5.28269     0.34722    90.00000    84.71731     0.34722
     9.30000    90.00000     5.29283     0.34721    90.00000    84.70717     0.34721
     9.40000    90.00000     5.30298     0.34720    90.00000    84.69702     0.34720
     9.50000    90.00000     5.31313     0.34719    90.00000    84.68687     0.34719
     9.60000    90.00000     5.32327     0.34718    90.00000    84.67673     0.34718
     9.70000    90.00000     5.33341     0.34717    90.00000    84.66659     0.34717
     9.80000    90.00000     5.34356     0.34716    90.00000    84.65644     0.34716
     9.90000    90.00000     5.35370     0.34715    90.00000    84.64630     0.34715
    10.00000    90.00000     5.36384     0.34714    90.00000    84.63616     0.34714
    10.10000    90.00000     5.37398     0.34714    90.00000    84.62602     0.34714
    10.20000    90.00000     5.38411     0.34713    90.00000    84.61589     0.34713
    10.30000    90.00000     5.39425     0.34712    90.00000    84.60575     0.34712
    10.40000    90.00000     5.40438     0.34711    90.00000    84.59562     0.34711
    10.50000    90.00000     5.41452     0.34710    90.00000    84.58548     0.34710
    10.60000    90.00000     5.42465     0.34709    90.00000    84.57535     0.34709
    10.70000    90.00000     5.43478     0.34708    90.00000    84.56522     0.34708
    10.80000    90.00000     5.44491     0.34707    90.00000    84.55509     0.34707
    10.90000    90.00000     5.45504     0.34706    90.00000    84.54496     0.34706
    11.00000    90.00000     5.46517     0.34706    90.00000    84.53483     0.34706
    11.10000    90.00000     5.47530     0.34705    90.00000    84.52470     0.34705
    11.20000    90.00000     5.48542     0.34704    90.00000    84.51458     0.34704
    11.30000    90.00000     5.49555     0.34703    90.00000    84.50445     0.34703
    11.40000    90.00000     5.50567     0.34702    90.00000    84.49433     0.34702
    11.50000    90.00000     5.51579     0.34701    90.00000    84.48421     0.34701
    11.60000    90.00000     5.52592     0.34700    90.00000    84.47408     0.34700
    11.70000    90.00000     5.53604     0.34699    90.00000    84.46396     0.34699
    11.80000    90.00000     5.54615     0.34699    90.00000    84.45385     0.34699
    11.90000    90.00000     5.55627     0.34698    90.00000    84.44373     0.34698
    12.00000    90.00000     5.56639     0.34697    90.00000    84.43361     0.34697
    12.10000    90.00000     5.57650     0.34696    90.00000    84.42350     0.34696
    12.20000    90.00000     5.58662     0.34695    90.00000    84.41338     0.34695
    12.30000    90.00000     5.59673     0.34694    90.00000    84.40327     0.34694
    12.40000    90.00000     5.60684     0.34693    90.00000    84.39316     0.34693
    12.50000    90.00000     5.61696     0.34693    90.00000    84.38304     0.34693
    12.60000    90.00000     5.62707     0.34692    90.00000    84.37293     0.34692
    12.70000    90.00000     5.63717     0.34691    90.00000    84.36283     0.34691
    12.80000    90.00000     5.64728     0.34690    90.00000    84.35272     0.34690
    12.90000    90.00000     5.65739     0.34689    90.00000    84.34261     0.34689
    13.00000    90.00000     5.66749     0.34688    90.00000    84.33251     0.34688
    13.10000    90.00000     5.67760     0.34687    90.00000    84.32240     0.34687
    13.20000    90.00000     5.68770     0.34687    90.00000    84.31230     0.34687
    13.30000    90.00000     5.69780     0.34686    90.00000    84.30220     0.34686
    13.40000    90.00000     5.70790     0.34685    90.00000    84.29210     0.34685
    13.50000    90.00000     5.71800     0.34684    90.00000    84.28200     0.34684
    13.60000    90.00000     5.72810     0.34683    90.00000    84.27190     0.34683
    13.70000    90.00000     5.73820     0.34682    90.00000    84.26180     0.34682
    13.80000    90.00000     5.74829     0.34682    90.00000    84.25171     0.34682
    13.90000    90.00000     5.75839     0.34681    90.00000    84.24161     0.34681
    14.00000    90.00000     5.76848     0.34680    90.00000    84.23152     0.34680
    14.10000    90.00000     5.77857     0.34679    90.00000    84.22143     0.34679
    14.20000    90.00000     5.78866     0.34678    90.00000    84.21134     0.34678
    14.30000    90.00000     5.79875     0.34677    90.00000    84.20125     0.34677
    14.40000    90.00000     5.80884     0.34677    90.00000    84.19116     0.34677
    14.50000    90.00000     5.81893     0.34676    90.00000    84.18107     0.34676
    14.60000    90.00000     5.82902     0.34675    90.00000    84.17098     0.34675
    14.70000    90.00000     5.83910     0.34674    90.00000    84.16090     0.34674
    14.80000    90.00000     5.84919     0.34673    90.00000    84.15081     0.34673
    14.90000    90.00000     5.85927     0.34673    90.00000    84.14073     0.34673
    15.00000    90.00000     5.86935     0.34672    90.00000    84.13065     0.34672
    15.10000    90.00000     5.87943     0.34671    90.00000    84.12057     0.34671
    15.20000    90.00000     5.88951     0.34670    90.00000    84.11049     0.34670
    15.30000    90.00000     5.89959     0.34669    90.00000    84.10041     0.34669
    15.40000    90.00000     5.90967     0.34668    90.00000    84.09033     0.34668
    15.50000    90.00000     5.91974     0.34668    90.00000    84.08026     0.34668
    15.60000    90.00000     5.92982     0.34667    90.00000    84.07018     0.34667
    15.70000    90.00000     5.93989     0.34666    90.00000    84.06011     0.34666
    15.80000    90.00000     5.94996     0.34665    90.00000    84.05004     0.34665
    15.90000    90.00000     5.96004     0.34664    90.00000    84.03996     0.34664
    16.00000    90.00000     5.97011     0.34664    90.00000    84.02989     0.34664
    16.10000    90.00000     5.98018     0.34663    90.00000    84.01982     0.34663
    16.20000    90.00000     5.99024     0.34662    90.00000    84.00976     0.34662
    16.30000    90.00000     6.00031     0.34661    90.00000    83.99969     0.34661
    16.40000    90.00000     6.01038     0.34660    90.00000    83.98962     0.34660
    16.50000    90.00000     6.02044     0.34660    90.00000    83.97956     0.34660
    16.60000    90.00000     6.03050     0.34659    90.00000    83.96950     0.34659
    16.70000    90.00000     6.04057     0.34658    90.00000    83.95943     0.34658
    16.80000    90.00000     6.05063     0.34657    90.00000    83.94937     0.34657
    16.90000    90.00000     6.06069     0.34657    90.00000    83.93931     0.34657
    17.00000    90.00000     6.07074     0.34656    90.00000    83.92926     0.34656
    17.10000    90.00000     6.08080     0.34655    90.00000    83.91920     0.34655
    17.20000    90.00000     6.09086     0.34654    90.00000    83.90914     0.34654
    17.30000    90.00000     6.10091     0.34653    90.00000    83.89909     0.34653
    17.40000    90.00000     6.11097     0.34653    90.00000    83.88903     0.34653
    17.50000    90.00000     6.12102     0.34652    90.00000    83.87898     0.34652
    17.60000    90.00000     6.13107     0.34651    90.00000    83.86893     0.34651
    17.70000    90.00000     6.14112     0.34650    90.00000    83.85888     0.34650
    17.80000    90.00000     6.15117     0.34650    90.00000    83.84883     0.34650
    17.90000    90.00000     6.16122     0.34649    90.00000    83.83878     0.34649
    18.00000    90.00000     6.17127     0.34648    90.00000    83.82873     0.34648
    18.10000    90.00000     6.18131     0.34647    90.00000    83.81869     0.34647
    18.20000    90.00000     6.19136     0.34646    90.00000    83.80864     0.34646
    18.30000    90.00000     6.20140     0.34646    90.00000    83.79860     0.34646
    18.40000    90.00000     6.21144     0.34645    90.00000    83.78856     0.34645
    18.50000    90.00000     6.22148     0.34644    90.00000    83.77852     0.34644
    18.60000    90.00000     6.23152     0.34643    90.00000    83.76848     0.34643
    18.70000    90.00000     6.24156     0.34643    90.00000    83.75844     0.34643
    18.80000    90.00000     6.25160     0.34642    90.00000    83.74840     0.34642
    18.90000    90.00000     6.26163     0.34641    90.00000    83.73837     0.34641
    19.00000    90.00000     6.27167     0.34640    90.00000    83.72833     0.34640
    19.10000    90.00000     6.28170     0.34640    90.00000    83.71830     0.34640
    19.20000    90.00000     6.29174     0.34639    90.00000    83.70826     0.34639
    19.30000    90.00000     6.30177     0.34638    90.00000    83.69823     0.34638
    19.40000    90.00000     6.31180     0.34637    90.00000    83.68820     0.34637
    19.50000    90.00000     6.32183     0.34637    90.00000    83.67817     0.34637
    19.60000    90.00000     6.33186     0.34636    90.00000    83.66814     0.34636
    19.70000    90.00000     6.34188     0.34635    90.00000    83.65812     0.34635
    19.80000    90.00000     6.35191     0.34634    90.00000    83.64809     0.34634
    19.90000    90.00000     6.36193     0.34634    90.00000    83.63807     0.34634
    20.00000    90.00000     6.37196     0.34633    90.00000    83.62804     0.34633
    20.10000    90.00000     6.38198     0.34632    90.00000    83.61802     0.34632
    20.20000    90.00000     6.39200     0.34632    90.00000    83.60800     0.34632
    20.30000    90.00000     6.40202     0.34631    90.00000    83.59798     0.34631
    20.40000    90.00000     6.41204     0.34630    90.00000    83.58796     0.34630
    20.50000    90.00000     6.42205     0.34629    90.00000    83.57795     0.34629
    20.60000    90.00000     6.43207     0.34629    90.00000    83.56793     0.34629
    20.70000    90.00000     6.44209     0.34628    90.00000    83.55791     0.34628
    20.80000    90.00000     6.45210     0.34627    90.00000    83.54790     0.34627
    20.90000    90.00000     6.46211     0.34626    90.00000    83.53789     0.34626
    21.00000    90.00000     6.47212     0.34626    90.00000    83.52788     0.34626
    21.10000    90.00000     6.48213     0.34625    90.00000    83.51787     0.34625
    21.20000    90.00000     6.49214     0.34624    90.00000    83.50786     0.34624
    21.30000    90.00000     6.50215     0.34624    90.00000    83.49785     0.34624
    21.40000    90.00000     6.51216     0.34623    90.00000    83.48784     0.34623
    21.50000    90.00000     6.52216     0.34622    90.00000    83.47784     0.34622
    21.60000    90.00000     6.53217     0.34621    90.00000    83.46783     0.34621
    21.70000    90.00000     6.54217     0.34621    90.00000    83.45783     0.34621
    21.80000    90.00000     6.55217     0.34620    90.00000    83.44783     0.34620
    21.90000    90.00000     6.56217     0.34619    90.00000    83.43783     0.34619
    22.00000    90.00000     6.57217     0.34619    90.00000    83.42783     0.34619
    22.10000    90.00000     6.58217     0.34618    90.00000    83.41783     0.34618
    22.20000    90.00000     6.59217     0.34617    90.00000    83.40783     0.34617
    22.30000    90.00000     6.60216     0.34617    90.00000    83.39784     0.34617
    22.40000    90.00000     6.61216     0.34616    90.00000    83.38784     0.34616
    22.50000    90.00000     6.62215     0.34615    90.00000    83.37785     0.34615
    22.60000    90.00000     6.63215     0.34614    90.00000    83.36785     0.34614
    22.70000    90.00000     6.64214     0.34614    90.00000    83.35786     0.34614
    22.80000    90.00000     6.65213     0.34613    90.00000    83.34787     0.34613
    22.90000    90.00000     6.66212     0.34612    90.00000    83.33788     0.34612
    23.00000    90.00000     6.67210     0.34612    90.00000    83.32790     0.34612
    23.10000    90.00000     6.68209     0.34611    90.00000    83.31791     0.34611
    23.20000    90.00000     6.69208     0.34610    90.00000    83.30792     0.34610
    23.30000    90.00000     6.70206     0.34610    90.00000    83.29794     0.34610
