 # applied field (T), theta (degree), phi (degree), abs for RE 1-2
     0.00000   180.00000   360.00000     4.43972   180.00000   360.00000     4.43972
     0.10000   179.83730   180.00000     4.43972   179.81280   180.00000     4.43972
     0.20000   179.67461   180.00000     4.43972   179.62560   180.00000     4.43972
     0.30000   179.55269   180.00000     4.43971   179.48519   180.00000     4.43971
     0.40000   179.38998   180.00000     4.43970   179.29798   180.00000     4.43970
     0.50000   179.22726   180.00000     4.43969   179.11076   180.00000     4.43969
     0.60000   179.06453   180.00000     4.43967   178.92353   180.00000     4.43968
     0.70000   178.94258   180.00000     4.43965   178.78310   180.00000     4.43967
     0.80000   178.77981   180.00000     4.43963   178.59584   180.00000     4.43965
     0.90000   178.61703   180.00000     4.43960   178.40857   180.00000     4.43963
     1.00000   178.45422   180.00000     4.43958   178.22128   180.00000     4.43960
     1.10000   178.33221   180.00000     4.43955   178.08079   180.00000     4.43958
     1.20000   178.16936   180.00000     4.43952   177.89346   180.00000     4.43955
     1.30000   178.00648   180.00000     4.43948   177.70610   180.00000     4.43952
     1.40000   177.84356   180.00000     4.43944   177.51871   180.00000     4.43949
     1.50000   177.68061   180.00000     4.43939   177.33129   180.00000     4.43945
     1.60000   177.55847   180.00000     4.43935   177.19070   180.00000     4.43942
     1.70000   177.39545   180.00000     4.43930   177.00323   180.00000     4.43938
     1.80000   177.23238   180.00000     4.43925   176.81571   180.00000     4.43934
     1.90000   177.06927   180.00000     4.43919   176.62816   180.00000     4.43929
     2.00000   176.94701   180.00000     4.43915   176.48746   180.00000     4.43925
     2.10000   176.78381   180.00000     4.43909   176.29983   180.00000     4.43920
     2.20000   176.62055   180.00000     4.43902   176.11215   180.00000     4.43915
     2.30000   176.45724   180.00000     4.43895   175.92443   180.00000     4.43909
     2.40000   176.33483   180.00000     4.43890   175.78360   180.00000     4.43905
     2.50000   176.17141   180.00000     4.43882   175.59579   180.00000     4.43899
     2.60000   176.00792   180.00000     4.43874   175.40792   180.00000     4.43892
     2.70000   175.84437   180.00000     4.43866   175.22000   180.00000     4.43886
     2.80000   175.68075   180.00000     4.43858   175.03201   180.00000     4.43879
     2.90000   175.55810   180.00000     4.43851   174.89098   180.00000     4.43874
     3.00000   175.39435   180.00000     4.43842   174.70289   180.00000     4.43866
     3.10000   175.23052   180.00000     4.43833   174.51473   180.00000     4.43859
     3.20000   175.06661   180.00000     4.43823   174.32651   180.00000     4.43851
     3.30000   174.94373   180.00000     4.43815   174.18528   180.00000     4.43845
     3.40000   174.77967   180.00000     4.43805   173.99694   180.00000     4.43836
     3.50000   174.61553   180.00000     4.43794   173.80851   180.00000     4.43828
     3.60000   174.45129   180.00000     4.43784   173.62002   180.00000     4.43819
     3.70000   174.32816   180.00000     4.43775   173.47858   180.00000     4.43812
     3.80000   174.16375   180.00000     4.43764   173.28995   180.00000     4.43803
     3.90000   173.99925   180.00000     4.43752   173.10123   180.00000     4.43794
     4.00000   173.83465   180.00000     4.43740   172.91242   180.00000     4.43784
     4.10000   173.66994   180.00000     4.43727   172.72353   180.00000     4.43774
     4.20000   173.54644   180.00000     4.43718   172.58180   180.00000     4.43766
     4.30000   173.38154   180.00000     4.43705   172.39275   180.00000     4.43756
     4.40000   173.21653   180.00000     4.43691   172.20361   180.00000     4.43745
     4.50000   173.05140   180.00000     4.43678   172.01437   180.00000     4.43734
     4.60000   172.92758   180.00000     4.43667   171.87237   180.00000     4.43726
     4.70000   172.76224   180.00000     4.43653   171.68296   180.00000     4.43714
     4.80000   172.59678   180.00000     4.43638   171.49346   180.00000     4.43703
     4.90000   172.43120   180.00000     4.43623   171.30385   180.00000     4.43691
     5.00000   172.26548   180.00000     4.43608   171.11413   180.00000     4.43679
     5.10000   172.14120   180.00000     4.43596   170.97175   180.00000     4.43669
     5.20000   171.97525   180.00000     4.43580   170.78185   180.00000     4.43657
     5.30000   171.80916   180.00000     4.43564   170.59183   180.00000     4.43644
     5.40000   171.64293   180.00000     4.43548   170.40170   180.00000     4.43631
     5.50000   171.47656   180.00000     4.43531   170.21145   180.00000     4.43618
     5.60000   171.35177   180.00000     4.43518   170.06867   180.00000     4.43607
     5.70000   171.18514   180.00000     4.43501   169.87821   180.00000     4.43594
     5.80000   171.01836   180.00000     4.43483   169.68764   180.00000     4.43580
     5.90000   170.85142   180.00000     4.43465   169.49694   180.00000     4.43566
     6.00000   170.72619   180.00000     4.43451   169.35381   180.00000     4.43555
     6.10000   170.55898   180.00000     4.43433   169.16288   180.00000     4.43540
     6.20000   170.39160   180.00000     4.43414   168.97183   180.00000     4.43525
     6.30000   170.22405   180.00000     4.43395   168.78065   180.00000     4.43510
     6.40000   170.05633   180.00000     4.43375   168.58933   180.00000     4.43495
     6.50000   169.93051   180.00000     4.43360   168.44573   180.00000     4.43483
     6.60000   169.76248   180.00000     4.43340   168.25417   180.00000     4.43468
     6.70000   169.59428   180.00000     4.43320   168.06247   180.00000     4.43452
     6.80000   169.42590   180.00000     4.43299   167.87064   180.00000     4.43436
     6.90000   169.25733   180.00000     4.43278   167.67865   180.00000     4.43419
     7.00000   169.13086   180.00000     4.43262   167.53454   180.00000     4.43407
     7.10000   168.96196   180.00000     4.43241   167.34230   180.00000     4.43390
     7.20000   168.79287   180.00000     4.43219   167.14992   180.00000     4.43373
     7.30000   168.62358   180.00000     4.43196   166.95738   180.00000     4.43356
     7.40000   168.45409   180.00000     4.43174   166.76469   180.00000     4.43339
     7.50000   168.32691   180.00000     4.43157   166.62003   180.00000     4.43325
     7.60000   168.15706   180.00000     4.43133   166.42707   180.00000     4.43307
     7.70000   167.98700   180.00000     4.43110   166.23394   180.00000     4.43289
     7.80000   167.81674   180.00000     4.43086   166.04066   180.00000     4.43271
     7.90000   167.64625   180.00000     4.43062   165.84721   180.00000     4.43253
     8.00000   167.51831   180.00000     4.43044   165.70198   180.00000     4.43239
     8.10000   167.34744   180.00000     4.43019   165.50825   180.00000     4.43220
     8.20000   167.17634   180.00000     4.42994   165.31434   180.00000     4.43201
     8.30000   167.00502   180.00000     4.42969   165.12027   180.00000     4.43182
     8.40000   166.83347   180.00000     4.42943   164.92602   180.00000     4.43162
     8.50000   166.66168   180.00000     4.42918   164.73160   180.00000     4.43143
     8.60000   166.53274   180.00000     4.42898   164.58563   180.00000     4.43127
     8.70000   166.36053   180.00000     4.42871   164.39090   180.00000     4.43108
     8.80000   166.18807   180.00000     4.42844   164.19599   180.00000     4.43087
     8.90000   166.01537   180.00000     4.42817   164.00090   180.00000     4.43067
     9.00000   165.84242   180.00000     4.42790   163.80563   180.00000     4.43047
     9.10000   165.71259   180.00000     4.42769   163.65901   180.00000     4.43031
     9.20000   165.53919   180.00000     4.42741   163.46342   180.00000     4.43010
     9.30000   165.36553   180.00000     4.42713   163.26763   180.00000     4.42989
     9.40000   165.19160   180.00000     4.42684   163.07166   180.00000     4.42967
     9.50000   165.01741   180.00000     4.42655   162.87550   180.00000     4.42946
     9.60000   164.84294   180.00000     4.42626   162.67914   180.00000     4.42924
     9.70000   164.71195   180.00000     4.42604   162.53170   180.00000     4.42908
     9.80000   164.53700   180.00000     4.42574   162.33500   180.00000     4.42886
     9.90000   164.36177   180.00000     4.42544   162.13811   180.00000     4.42864
    10.00000   164.18625   180.00000     4.42514   161.94101   180.00000     4.42841
    10.10000   164.01044   180.00000     4.42483   161.74371   180.00000     4.42819
    10.20000   163.83435   180.00000     4.42452   161.54622   180.00000     4.42796
    10.30000   163.65795   180.00000     4.42421   161.34851   180.00000     4.42773
    10.40000   163.52549   180.00000     4.42397   161.20004   180.00000     4.42756
    10.50000   163.34857   180.00000     4.42365   161.00198   180.00000     4.42732
    10.60000   163.17134   180.00000     4.42333   160.80370   180.00000     4.42709
    10.70000   162.99380   180.00000     4.42301   160.60522   180.00000     4.42686
    10.80000   162.81595   180.00000     4.42268   160.40652   180.00000     4.42662
    10.90000   162.63777   180.00000     4.42235   160.20761   180.00000     4.42638
    11.00000   162.45928   180.00000     4.42202   160.00849   180.00000     4.42614
    11.10000   162.32522   180.00000     4.42176   159.85894   180.00000     4.42596
    11.20000   162.14615   180.00000     4.42142   159.65943   180.00000     4.42571
    11.30000   161.96675   180.00000     4.42108   159.45970   180.00000     4.42547
    11.40000   161.78702   180.00000     4.42074   159.25976   180.00000     4.42522
    11.50000   161.60695   180.00000     4.42039   159.05959   180.00000     4.42498
    11.60000   161.42653   180.00000     4.42004   158.85919   180.00000     4.42473
    11.70000   161.24577   180.00000     4.41969   158.65857   180.00000     4.42448
    11.80000   161.06465   180.00000     4.41933   158.45772   180.00000     4.42422
    11.90000   160.92858   180.00000     4.41906   158.30687   180.00000     4.42403
    12.00000   160.74684   180.00000     4.41870   158.10562   180.00000     4.42378
    12.10000   160.56473   180.00000     4.41833   157.90414   180.00000     4.42352
    12.20000   160.38226   180.00000     4.41797   157.70243   180.00000     4.42326
    12.30000   160.19942   180.00000     4.41760   157.50048   180.00000     4.42300
    12.40000   160.01620   180.00000     4.41722   157.29830   180.00000     4.42274
    12.50000   159.83260   180.00000     4.41685   157.09588   180.00000     4.42248
    12.60000   159.64862   180.00000     4.41647   156.89323   180.00000     4.42222
    12.70000   159.46426   180.00000     4.41609   156.69034   180.00000     4.42196
    12.80000   159.27950   180.00000     4.41570   156.48720   180.00000     4.42169
    12.90000   159.14065   180.00000     4.41541   156.33461   180.00000     4.42149
    13.00000   158.95520   180.00000     4.41502   156.13105   180.00000     4.42122
    13.10000   158.76934   180.00000     4.41463   155.92725   180.00000     4.42095
    13.20000   158.58308   180.00000     4.41423   155.72320   180.00000     4.42068
    13.30000   158.39641   180.00000     4.41384   155.51890   180.00000     4.42041
    13.40000   158.20932   180.00000     4.41344   155.31436   180.00000     4.42014
    13.50000   158.02181   180.00000     4.41303   155.10957   180.00000     4.41986
    13.60000   157.83388   180.00000     4.41263   154.90453   180.00000     4.41959
    13.70000   157.64552   180.00000     4.41222   154.69923   180.00000     4.41931
    13.80000   157.45673   180.00000     4.41181   154.49369   180.00000     4.41904
    13.90000   157.26750   180.00000     4.41140   154.28789   180.00000     4.41876
    14.00000   157.07784   180.00000     4.41098   154.08183   180.00000     4.41848
    14.10000   156.88772   180.00000     4.41056   153.87552   180.00000     4.41820
    14.20000   156.69716   180.00000     4.41014   153.66896   180.00000     4.41792
    14.30000   156.50615   180.00000     4.40972   153.46213   180.00000     4.41764
    14.40000   156.31468   180.00000     4.40929   153.25505   180.00000     4.41735
    14.50000   156.12274   180.00000     4.40886   153.04771   180.00000     4.41707
    14.60000   155.93034   180.00000     4.40843   152.84010   180.00000     4.41678
    14.70000   155.73747   180.00000     4.40800   152.63223   180.00000     4.41650
    14.80000   155.54412   180.00000     4.40756   152.42410   180.00000     4.41621
    14.90000   155.35030   180.00000     4.40712   152.21571   180.00000     4.41592
    15.00000   155.15599   180.00000     4.40668   152.00705   180.00000     4.41564
    15.10000   154.96119   180.00000     4.40624   151.79812   180.00000     4.41535
    15.20000   154.76590   180.00000     4.40579   151.58893   180.00000     4.41506
    15.30000   154.57011   180.00000     4.40534   151.37947   180.00000     4.41477
    15.40000   154.37383   180.00000     4.40489   151.16974   180.00000     4.41447
    15.50000   154.17703   180.00000     4.40444   150.95974   180.00000     4.41418
    15.60000   153.97973   180.00000     4.40398   150.74947   180.00000     4.41389
    15.70000   153.78191   180.00000     4.40353   150.53893   180.00000     4.41360
    15.80000   153.58357   180.00000     4.40307   150.32811   180.00000     4.41330
    15.90000   153.38471   180.00000     4.40261   150.11702   180.00000     4.41301
    16.00000   153.18532   180.00000     4.40214   149.90566   180.00000     4.41271
    16.10000   152.98541   180.00000     4.40168   149.69402   180.00000     4.41241
    16.20000   152.78495   180.00000     4.40121   149.48211   180.00000     4.41212
    16.30000   152.58395   180.00000     4.40074   149.26992   180.00000     4.41182
    16.40000   152.38241   180.00000     4.40027   149.05745   180.00000     4.41152
    16.50000   152.12982   180.00000     4.39968   148.79159   180.00000     4.41115
    16.60000   151.92704   180.00000     4.39921   148.57850   180.00000     4.41085
    16.70000   151.72370   180.00000     4.39873   148.36513   180.00000     4.41055
    16.80000   151.51980   180.00000     4.39825   148.15147   180.00000     4.41025
    16.90000   151.31533   180.00000     4.39777   147.93753   180.00000     4.40995
    17.00000   151.11028   180.00000     4.39728   147.72332   180.00000     4.40965
    17.10000   150.90467   180.00000     4.39680   147.50881   180.00000     4.40934
    17.20000   150.69847   180.00000     4.39631   147.29403   180.00000     4.40904
    17.30000   150.44003   180.00000     4.39571   147.02527   180.00000     4.40867
    17.40000   150.23251   180.00000     4.39522   146.80985   180.00000     4.40836
    17.50000   150.02440   180.00000     4.39473   146.59414   180.00000     4.40806
    17.60000   149.81569   180.00000     4.39423   146.37814   180.00000     4.40775
    17.70000   149.60637   180.00000     4.39374   146.16185   180.00000     4.40745
    17.80000   149.34403   180.00000     4.39312   145.89122   180.00000     4.40707
    17.90000   149.13335   180.00000     4.39263   145.67429   180.00000     4.40677
    18.00000   148.92205   180.00000     4.39213   145.45707   180.00000     4.40646
    18.10000   148.71014   180.00000     4.39163   145.23955   180.00000     4.40615
    18.20000   148.49760   180.00000     4.39112   145.02175   180.00000     4.40585
    18.30000   148.23120   180.00000     4.39050   144.74922   180.00000     4.40547
    18.40000   148.01725   180.00000     4.39000   144.53076   180.00000     4.40516
    18.50000   147.80266   180.00000     4.38949   144.31201   180.00000     4.40485
    18.60000   147.53369   180.00000     4.38886   144.03830   180.00000     4.40447
    18.70000   147.31766   180.00000     4.38836   143.81888   180.00000     4.40417
    18.80000   147.10098   180.00000     4.38785   143.59918   180.00000     4.40386
    18.90000   146.82940   180.00000     4.38722   143.32427   180.00000     4.40348
    19.00000   146.61125   180.00000     4.38671   143.10390   180.00000     4.40317
    19.10000   146.39244   180.00000     4.38620   142.88323   180.00000     4.40286
    19.20000   146.11818   180.00000     4.38556   142.60712   180.00000     4.40248
    19.30000   145.89788   180.00000     4.38505   142.38578   180.00000     4.40217
    19.40000   145.67691   180.00000     4.38454   142.16414   180.00000     4.40186
    19.50000   145.39994   180.00000     4.38390   141.88682   180.00000     4.40148
    19.60000   145.17745   180.00000     4.38339   141.66451   180.00000     4.40116
    19.70000   144.89858   180.00000     4.38275   141.38634   180.00000     4.40078
    19.80000   144.67455   180.00000     4.38224   141.16335   180.00000     4.40047
    19.90000   144.39376   180.00000     4.38160   140.88434   180.00000     4.40009
    20.00000   144.16818   180.00000     4.38109   140.66067   180.00000     4.39978
    20.10000   143.88545   180.00000     4.38045   140.38081   180.00000     4.39940
    20.20000   143.65831   180.00000     4.37994   140.15646   180.00000     4.39908
    20.30000   143.37363   180.00000     4.37930   139.87574   180.00000     4.39870
    20.40000   143.14491   180.00000     4.37879   139.65070   180.00000     4.39839
    20.50000   142.85825   180.00000     4.37815   139.36912   180.00000     4.39801
    20.60000   142.62795   180.00000     4.37764   139.14339   180.00000     4.39769
    20.70000   142.33930   180.00000     4.37700   138.86095   180.00000     4.39731
    20.80000   142.04955   180.00000     4.37637   138.57803   180.00000     4.39693
    20.90000   141.81676   180.00000     4.37586   138.35121   180.00000     4.39662
    21.00000   141.52500   180.00000     4.37522   138.06742   180.00000     4.39623
    21.10000   141.23212   180.00000     4.37459   137.78315   180.00000     4.39585
    21.20000   140.99681   180.00000     4.37408   137.55524   180.00000     4.39554
    21.30000   140.70191   180.00000     4.37346   137.27009   180.00000     4.39515
    21.40000   140.40589   180.00000     4.37283   136.98444   180.00000     4.39477
    21.50000   140.10873   180.00000     4.37221   136.69830   180.00000     4.39438
    21.60000   139.86999   180.00000     4.37170   136.46890   180.00000     4.39407
    21.70000   139.57080   180.00000     4.37108   136.18188   180.00000     4.39369
    21.80000   139.27048   180.00000     4.37046   135.89436   180.00000     4.39330
    21.90000   138.96902   180.00000     4.36984   135.60634   180.00000     4.39292
    22.00000   138.66643   180.00000     4.36923   135.31782   180.00000     4.39253
    22.10000   138.36270   180.00000     4.36862   135.02880   180.00000     4.39215
    22.20000   138.05784   180.00000     4.36801   134.73928   180.00000     4.39176
    22.30000   137.75184   180.00000     4.36740   134.44925   180.00000     4.39138
    22.40000   137.44471   180.00000     4.36680   134.15872   180.00000     4.39100
    22.50000   137.13644   180.00000     4.36620   133.86768   180.00000     4.39061
    22.60000   136.82705   180.00000     4.36560   133.57612   180.00000     4.39023
    22.70000   136.51652   180.00000     4.36501   133.28406   180.00000     4.38984
    22.80000   136.20486   180.00000     4.36442   132.99148   180.00000     4.38946
    22.90000   135.82962   180.00000     4.36373   132.63985   180.00000     4.38900
    23.00000   135.51549   180.00000     4.36315   132.34613   180.00000     4.38862
    23.10000   135.20025   180.00000     4.36257   132.05189   180.00000     4.38823
    23.20000   134.88389   180.00000     4.36200   131.75713   180.00000     4.38784
    23.30000   134.50302   180.00000     4.36132   131.40286   180.00000     4.38739
