 # applied field (T), theta (degree), phi (degree), abs [muB/unitcell], abs [T]
       0.00000000       0.00000000       0.00000000      35.82463313       1.20579749
       0.10000000       0.28399709      45.00000000      35.82462701       1.20579729
       0.20000000       0.62464559      45.00000000      35.82460298       1.20579648
       0.30000000       0.90864358      45.00000000      35.82456972       1.20579536
       0.40000000       1.19264239      45.00000000      35.82452423       1.20579383
       0.50000000       1.53329404      45.00000000      35.82445217       1.20579140
       0.60000000       1.81729553      45.00000000      35.82437956       1.20578896
       0.70000000       2.10129864      45.00000000      35.82429475       1.20578610
       0.80000000       2.44195660      45.00000000      35.82417474       1.20578206
       0.90000000       2.72596419      45.00000000      35.82406285       1.20577830
       1.00000000       3.00997421      45.00000000      35.82393880       1.20577412
       1.10000000       3.35064162      45.00000000      35.82377096       1.20576847
       1.20000000       3.63465791      45.00000000      35.82361992       1.20576339
       1.30000000       3.91867743      45.00000000      35.82345675       1.20575790
       1.40000000       4.25935743      45.00000000      35.82324125       1.20575064
       1.50000000       4.54338500      45.00000000      35.82305121       1.20574425
       1.60000000       4.88407549      45.00000000      35.82280298       1.20573589
       1.70000000       5.16811233      45.00000000      35.82258616       1.20572859
       1.80000000       5.45215376      45.00000000      35.82235732       1.20572089
       1.90000000       5.79286211      45.00000000      35.82206183       1.20571095
       2.00000000       6.07691458      45.00000000      35.82180637       1.20570235
       2.10000000       6.36097244      45.00000000      35.82153896       1.20569335
       2.20000000       6.70170177      45.00000000      35.82119651       1.20568182
       2.30000000       6.98577242      45.00000000      35.82090267       1.20567193
       2.40000000       7.26984926      45.00000000      35.82059698       1.20566164
       2.50000000       7.61060265      45.00000000      35.82020792       1.20564855
       2.60000000       7.89469404      45.00000000      35.81987601       1.20563738
       2.70000000       8.17879240      45.00000000      35.81953235       1.20562581
       2.80000000       8.51957291      45.00000000      35.81909707       1.20561116
       2.90000000       8.80368756      45.00000000      35.81872743       1.20559872
       3.00000000       9.08780995      45.00000000      35.81834615       1.20558588
       3.10000000       9.42862064      45.00000000      35.81786511       1.20556969
       3.20000000       9.71276105      45.00000000      35.81745812       1.20555599
       3.30000000      10.05359428      45.00000000      35.81694581       1.20553875
       3.40000000      10.33775387      45.00000000      35.81651331       1.20552419
       3.50000000      10.62192253      45.00000000      35.81606939       1.20550925
       3.60000000      10.96279102      45.00000000      35.81551217       1.20549050
       3.70000000      11.24698056      45.00000000      35.81504305       1.20547471
       3.80000000      11.53117993      45.00000000      35.81456266       1.20545854
       3.90000000      11.87208665      45.00000000      35.81396110       1.20543829
       4.00000000      12.15630858      45.00000000      35.81345585       1.20542128
       4.10000000      12.49724335      45.00000000      35.81282406       1.20540002
       4.20000000      12.78148900      45.00000000      35.81229420       1.20538218
       4.30000000      13.06574574      45.00000000      35.81175335       1.20536398
       4.40000000      13.40672370      45.00000000      35.81107828       1.20534126
       4.50000000      13.69100580      45.00000000      35.81051319       1.20532224
       4.60000000      14.03201517      45.00000000      35.80980867       1.20529853
       4.70000000      14.31632377      45.00000000      35.80921963       1.20527870
       4.80000000      14.60064470      45.00000000      35.80861989       1.20525851
       4.90000000      14.94170211      45.00000000      35.80787328       1.20523338
       5.00000000      15.22605114      45.00000000      35.80725002       1.20521241
       5.10000000      15.56714327      45.00000000      35.80647481       1.20518631
       5.20000000      15.85152150      45.00000000      35.80582832       1.20516455
       5.30000000      16.13591328      45.00000000      35.80517147       1.20514244
       5.40000000      16.47705819      45.00000000      35.80435549       1.20511498
       5.50000000      16.76148074      45.00000000      35.80367588       1.20509211
       5.60000000      17.10266359      45.00000000      35.80283224       1.20506371
       5.70000000      17.38711798      45.00000000      35.80213020       1.20504008
       5.80000000      17.72834007      45.00000000      35.80125932       1.20501077
       5.90000000      18.01282735      45.00000000      35.80053518       1.20498639
       6.00000000      18.29732984      45.00000000      35.79980123       1.20496169
       6.10000000      18.63861117      45.00000000      35.79889160       1.20493107
       6.20000000      18.92314807      45.00000000      35.79813607       1.20490565
       6.30000000      19.26447173      45.00000000      35.79720026       1.20487415
       6.40000000      19.54904405      45.00000000      35.79642353       1.20484800
       6.50000000      19.89041128      45.00000000      35.79546198       1.20481564
       6.60000000      20.17502004      45.00000000      35.79466442       1.20478879
       6.70000000      20.51643205      45.00000000      35.79367759       1.20475558
       6.80000000      20.80107825      45.00000000      35.79285960       1.20472805
       6.90000000      21.14253625      45.00000000      35.79184797       1.20469400
       7.00000000      21.42722086      45.00000000      35.79100994       1.20466579
       7.10000000      21.76872603      45.00000000      35.78997400       1.20463092
       7.20000000      22.05345002      45.00000000      35.78911634       1.20460206
       7.30000000      22.39500353      45.00000000      35.78805658       1.20456639
       7.40000000      22.67976785      45.00000000      35.78717972       1.20453687
       7.50000000      23.02137084      45.00000000      35.78609666       1.20450042
       7.60000000      23.30617643      45.00000000      35.78520102       1.20447027
       7.70000000      23.64783003      45.00000000      35.78409518       1.20443305
       7.80000000      23.93267781      45.00000000      35.78318120       1.20440229
       7.90000000      24.27438312      45.00000000      35.78205311       1.20436432
       8.00000000      24.55927398      45.00000000      35.78112124       1.20433295
       8.10000000      24.90103210      45.00000000      35.77997145       1.20429425
       8.20000000      25.18596693      45.00000000      35.77902214       1.20426230
       8.30000000      25.52777892      45.00000000      35.77785119       1.20422289
       8.40000000      25.81275859      45.00000000      35.77688491       1.20419037
       8.50000000      26.15462550      45.00000000      35.77569338       1.20415026
       8.60000000      26.43965085      45.00000000      35.77471060       1.20411718
       8.70000000      26.78157370      45.00000000      35.77349907       1.20407640
       8.80000000      27.12352763      45.00000000      35.77227674       1.20403526
       8.90000000      27.40862536      45.00000000      35.77126931       1.20400135
       9.00000000      27.75063678      45.00000000      35.77002788       1.20395957
       9.10000000      28.03578227      45.00000000      35.76900519       1.20392515
       9.20000000      28.37785214      45.00000000      35.76774526       1.20388274
       9.30000000      28.71995445      45.00000000      35.76647538       1.20384000
       9.40000000      29.00517545      45.00000000      35.76543000       1.20380481
       9.50000000      29.34733766      45.00000000      35.76414257       1.20376148
       9.60000000      29.68953310      45.00000000      35.76284570       1.20371783
       9.70000000      29.97483140      45.00000000      35.76177886       1.20368192
       9.80000000      30.31708814      45.00000000      35.76046540       1.20363771
       9.90000000      30.65937885      45.00000000      35.75914305       1.20359320
      10.00000000      30.94475619      45.00000000      35.75805601       1.20355662
      10.10000000      31.28710954      45.00000000      35.75671806       1.20351158
      10.20000000      31.62949759      45.00000000      35.75537176       1.20346627
      10.30000000      31.91495562      45.00000000      35.75426579       1.20342904
      10.40000000      32.25740757      45.00000000      35.75290490       1.20338324
      10.50000000      32.59989491      45.00000000      35.75153622       1.20333717
      10.60000000      32.88543521      45.00000000      35.75041264       1.20329935
      10.70000000      33.22798767      45.00000000      35.74903039       1.20325283
      10.80000000      33.57057615      45.00000000      35.74764092       1.20320606
      10.90000000      33.91320089      45.00000000      35.74624442       1.20315906
      11.00000000      34.19885498      45.00000000      35.74509907       1.20312051
      11.10000000      34.54154638      45.00000000      35.74369043       1.20307310
      11.20000000      34.88427463      45.00000000      35.74227534       1.20302547
      11.30000000      35.22703995      45.00000000      35.74085401       1.20297763
      11.40000000      35.56984253      45.00000000      35.73942666       1.20292958
      11.50000000      35.91268257      45.00000000      35.73799348       1.20288135
      11.60000000      36.19851476      45.00000000      35.73681970       1.20284184
      11.70000000      36.54142358      45.00000000      35.73537660       1.20279327
      11.80000000      36.88437038      45.00000000      35.73392828       1.20274452
      11.90000000      37.22735534      45.00000000      35.73247495       1.20269560
      12.00000000      37.57037863      45.00000000      35.73101682       1.20264652
      12.10000000      37.91344043      45.00000000      35.72955411       1.20259729
      12.20000000      38.25654089      45.00000000      35.72808703       1.20254791
      12.30000000      38.59968017      45.00000000      35.72661581       1.20249839
      12.40000000      38.94285843      45.00000000      35.72514065       1.20244874
      12.50000000      39.28607581      45.00000000      35.72366179       1.20239896
      12.60000000      39.62933245      45.00000000      35.72217943       1.20234907
      12.70000000      39.97262850      45.00000000      35.72069381       1.20229907
      12.80000000      40.31596408      45.00000000      35.71920513       1.20224896
      12.90000000      40.65933933      45.00000000      35.71771363       1.20219876
      13.00000000      41.00275436      45.00000000      35.71621953       1.20214847
      13.10000000      41.34620929      45.00000000      35.71472304       1.20209810
      13.20000000      41.68970422      45.00000000      35.71322441       1.20204766
      13.30000000      42.03323927      45.00000000      35.71172384       1.20199715
      13.40000000      42.37681454      45.00000000      35.71022157       1.20194659
      13.50000000      42.72043012      45.00000000      35.70871782       1.20189598
      13.60000000      43.12127130      45.00000000      35.70693305       1.20183590
      13.70000000      43.46497497      45.00000000      35.70542669       1.20178520
      13.80000000      43.80871923      45.00000000      35.70391958       1.20173447
      13.90000000      44.15250412      45.00000000      35.70241195       1.20168373
      14.00000000      44.49632972      45.00000000      35.70090402       1.20163298
      14.10000000      44.89741889      45.00000000      35.69911491       1.20157276
      14.20000000      45.24133338      45.00000000      35.69760695       1.20152200
      14.30000000      45.58528875      45.00000000      35.69609943       1.20147126
      14.40000000      45.98653107      45.00000000      35.69431114       1.20141107
      14.50000000      46.33057564      45.00000000      35.69280518       1.20136038
      14.60000000      46.73192321      45.00000000      35.69101896       1.20130026
      14.70000000      47.07605712      45.00000000      35.68951567       1.20124966
      14.80000000      47.42023206      45.00000000      35.68801405       1.20119912
      14.90000000      47.82173343      45.00000000      35.68623328       1.20113918
      15.00000000      48.16599780      45.00000000      35.68473594       1.20108879
      15.10000000      48.56760466      45.00000000      35.68296041       1.20102902
      15.20000000      48.96926858      45.00000000      35.68118816       1.20096937
      15.30000000      49.31367073      45.00000000      35.67969947       1.20091927
      15.40000000      49.71544005      45.00000000      35.67793447       1.20085986
      15.50000000      50.11726635      45.00000000      35.67617382       1.20080060
      15.60000000      50.46180602      45.00000000      35.67469641       1.20075087
      15.70000000      50.86373744      45.00000000      35.67294501       1.20069192
      15.80000000      51.26572566      45.00000000      35.67119904       1.20063316
      15.90000000      51.66777058      45.00000000      35.66945888       1.20057459
      16.00000000      52.06987210      45.00000000      35.66772492       1.20051622
      16.10000000      52.47203011      45.00000000      35.66599752       1.20045808
      16.20000000      52.87424448      45.00000000      35.66427708       1.20040017
      16.30000000      53.27651507      45.00000000      35.66256396       1.20034251
      16.40000000      53.67884172      45.00000000      35.66085855       1.20028511
      16.50000000      54.08122427      45.00000000      35.65916123       1.20022798
      16.60000000      54.48366253      45.00000000      35.65747238       1.20017114
      16.70000000      54.88615631      45.00000000      35.65579237       1.20011459
      16.80000000      55.28870541      45.00000000      35.65412158       1.20005836
      16.90000000      55.74876485      45.00000000      35.65219382       1.19999347
      17.00000000      56.15143232      45.00000000      35.65054390       1.19993794
      17.10000000      56.61162774      45.00000000      35.64864067       1.19987388
      17.20000000      57.01441245      45.00000000      35.64701337       1.19981911
      17.30000000      57.47474250      45.00000000      35.64513665       1.19975594
      17.40000000      57.87764318      45.00000000      35.64353368       1.19970199
      17.50000000      58.33810634      45.00000000      35.64168544       1.19963978
      17.60000000      58.79864015      45.00000000      35.63985311       1.19957810
      17.70000000      59.25924413      45.00000000      35.63803726       1.19951699
      17.80000000      59.71991776      45.00000000      35.63623843       1.19945644
      17.90000000      60.18066049      45.00000000      35.63445718       1.19939649
      18.00000000      60.64147174      45.00000000      35.63269406       1.19933714
      18.10000000      61.10235093      45.00000000      35.63094960       1.19927843
      18.20000000      61.56329744      45.00000000      35.62922436       1.19922036
      18.30000000      62.08189472      45.00000000      35.62727890       1.19915488
      18.40000000      62.54298278      45.00000000      35.62559615       1.19909824
      18.50000000      63.06173904      45.00000000      35.62369959       1.19903440
      18.60000000      63.58057836      45.00000000      35.62182995       1.19897147
      18.70000000      64.09949969      45.00000000      35.61998797       1.19890948
      18.80000000      64.61850195      45.00000000      35.61817442       1.19884844
      18.90000000      65.13758397      45.00000000      35.61639001       1.19878838
      19.00000000      65.71439685      45.00000000      35.61441653       1.19872195
      19.10000000      66.23364410      45.00000000      35.61269596       1.19866404
      19.20000000      66.81063900      45.00000000      35.61079494       1.19860005
      19.30000000      67.38772753      45.00000000      35.60893343       1.19853740
      19.40000000      67.96490786      45.00000000      35.60711237       1.19847611
      19.50000000      68.54217808      45.00000000      35.60533272       1.19841621
      19.60000000      69.17724785      45.00000000      35.60340011       1.19835116
      19.70000000      69.81242297      45.00000000      35.60151973       1.19828787
      19.80000000      70.44770069      45.00000000      35.59969277       1.19822637
      19.90000000      71.14082059      45.00000000      35.59774001       1.19816065
      20.00000000      71.77630431      45.00000000      35.59602844       1.19810304
      20.10000000      72.52740618      45.00000000      35.59403477       1.19803594
      20.20000000      73.22086393      45.00000000      35.59228517       1.19797705
      20.30000000      74.02999212      45.00000000      35.59029212       1.19790996
      20.40000000      74.83925940      45.00000000      35.58839682       1.19784617
      20.50000000      75.64865883      45.00000000      35.58660131       1.19778574
      20.60000000      76.57381214      45.00000000      35.58463835       1.19771967
      20.70000000      77.49912143      45.00000000      35.58281074       1.19765815
      20.80000000      78.54024640      45.00000000      35.58088831       1.19759345
      20.90000000      79.63938797      45.00000000      35.57903809       1.19753117
      21.00000000      80.91227095      45.00000000      35.57710811       1.19746621
      21.10000000      82.35896036      45.00000000      35.57521505       1.19740249
      21.20000000      84.21101712      45.00000000      35.57324996       1.19733635
      21.30000000      86.87378727      45.00000000      35.57137429       1.19727322
      21.40000000      90.00000000      45.00000000      35.57074983       1.19725220
      21.50000000      90.00000000      45.00000000      35.57100663       1.19726085
      21.60000000      90.00000000      45.00000000      35.57126342       1.19726949
      21.70000000      90.00000000      45.00000000      35.57152018       1.19727813
      21.80000000      90.00000000      45.00000000      35.57177693       1.19728677
      21.90000000      90.00000000      45.00000000      35.57203365       1.19729541
      22.00000000      90.00000000      45.00000000      35.57229035       1.19730405
      22.10000000      90.00000000      45.00000000      35.57254703       1.19731269
      22.20000000      90.00000000      45.00000000      35.57280368       1.19732133
      22.30000000      90.00000000      45.00000000      35.57306032       1.19732997
      22.40000000      90.00000000      45.00000000      35.57331693       1.19733861
      22.50000000      90.00000000      45.00000000      35.57357352       1.19734724
      22.60000000      90.00000000      45.00000000      35.57383009       1.19735588
      22.70000000      90.00000000      45.00000000      35.57408664       1.19736451
      22.80000000      90.00000000      45.00000000      35.57434316       1.19737315
      22.90000000      90.00000000      45.00000000      35.57459967       1.19738178
      23.00000000      90.00000000      45.00000000      35.57485615       1.19739041
