 # applied field (T), theta (degree), phi (degree), abs [muB/unitcell], abs [T]
       0.00000000      90.00000000      45.42829117      50.77869428       1.76825449
       0.10000000      90.00000000      41.14492182      50.77876324       1.76825689
       0.20000000      90.00000000      37.71805525      50.77889057       1.76826132
       0.30000000      90.00000000      34.29099752      50.77907137       1.76826762
       0.40000000      90.00000000      30.86364995      50.77929809       1.76827551
       0.50000000      90.00000000      27.43593239      50.77956074       1.76828466
       0.60000000      90.00000000      24.00778800      50.77984726       1.76829464
       0.70000000      90.00000000      19.72202043      50.78020725       1.76830717
       0.80000000      90.00000000      15.43552551      50.78055400       1.76831925
       0.90000000      90.00000000      10.29091238      50.78090407       1.76833144
       1.00000000      90.00000000     360.00000000      50.78122287       1.76834254
       1.10000000      90.00000000     360.00000000      50.78126822       1.76834412
       1.20000000      90.00000000     360.00000000      50.78131356       1.76834570
       1.30000000      90.00000000     360.00000000      50.78135891       1.76834728
       1.40000000      90.00000000     360.00000000      50.78140426       1.76834885
       1.50000000      90.00000000     360.00000000      50.78144962       1.76835043
       1.60000000      90.00000000     360.00000000      50.78149498       1.76835201
       1.70000000      90.00000000     360.00000000      50.78154034       1.76835359
       1.80000000      90.00000000     360.00000000      50.78158571       1.76835517
       1.90000000      90.00000000     360.00000000      50.78163108       1.76835675
       2.00000000      90.00000000     360.00000000      50.78167646       1.76835833
       2.10000000      90.00000000     360.00000000      50.78172183       1.76835991
       2.20000000      90.00000000     360.00000000      50.78176722       1.76836149
       2.30000000      90.00000000     360.00000000      50.78181260       1.76836307
       2.40000000      90.00000000     360.00000000      50.78185799       1.76836465
       2.50000000      90.00000000     360.00000000      50.78190338       1.76836624
       2.60000000      90.00000000     360.00000000      50.78194878       1.76836782
       2.70000000      90.00000000     360.00000000      50.78199418       1.76836940
       2.80000000      90.00000000     360.00000000      50.78203958       1.76837098
       2.90000000      90.00000000     360.00000000      50.78208499       1.76837256
       3.00000000      90.00000000     360.00000000      50.78213040       1.76837414
       3.10000000      90.00000000     360.00000000      50.78217581       1.76837572
       3.20000000      90.00000000     360.00000000      50.78222123       1.76837730
       3.30000000      90.00000000     360.00000000      50.78226665       1.76837889
       3.40000000      90.00000000     360.00000000      50.78231208       1.76838047
       3.50000000      90.00000000     360.00000000      50.78235750       1.76838205
       3.60000000      90.00000000     360.00000000      50.78240294       1.76838363
       3.70000000      90.00000000     360.00000000      50.78244837       1.76838521
       3.80000000      90.00000000     360.00000000      50.78249381       1.76838680
       3.90000000      90.00000000     360.00000000      50.78253925       1.76838838
       4.00000000      90.00000000     360.00000000      50.78258470       1.76838996
       4.10000000      90.00000000     360.00000000      50.78263015       1.76839154
       4.20000000      90.00000000     360.00000000      50.78267560       1.76839313
       4.30000000      90.00000000     360.00000000      50.78272106       1.76839471
       4.40000000      90.00000000     360.00000000      50.78276652       1.76839629
       4.50000000      90.00000000     360.00000000      50.78281199       1.76839788
       4.60000000      90.00000000     360.00000000      50.78285746       1.76839946
       4.70000000      90.00000000     360.00000000      50.78290293       1.76840104
       4.80000000      90.00000000     360.00000000      50.78294840       1.76840263
       4.90000000      90.00000000     360.00000000      50.78299388       1.76840421
       5.00000000      90.00000000     360.00000000      50.78303937       1.76840579
       5.10000000      90.00000000     360.00000000      50.78308485       1.76840738
       5.20000000      90.00000000     360.00000000      50.78313034       1.76840896
       5.30000000      90.00000000     360.00000000      50.78317584       1.76841055
       5.40000000      90.00000000     360.00000000      50.78322134       1.76841213
       5.50000000      90.00000000     360.00000000      50.78326684       1.76841371
       5.60000000      90.00000000     360.00000000      50.78331234       1.76841530
       5.70000000      90.00000000     360.00000000      50.78335785       1.76841688
       5.80000000      90.00000000     360.00000000      50.78340336       1.76841847
       5.90000000      90.00000000     360.00000000      50.78344888       1.76842005
       6.00000000      90.00000000     360.00000000      50.78349440       1.76842164
       6.10000000      90.00000000     360.00000000      50.78353992       1.76842322
       6.20000000      90.00000000     360.00000000      50.78358545       1.76842481
       6.30000000      90.00000000     360.00000000      50.78363098       1.76842640
       6.40000000      90.00000000     360.00000000      50.78367651       1.76842798
       6.50000000      90.00000000     360.00000000      50.78372205       1.76842957
       6.60000000      90.00000000     360.00000000      50.78376759       1.76843115
       6.70000000      90.00000000     360.00000000      50.78381314       1.76843274
       6.80000000      90.00000000     360.00000000      50.78385869       1.76843432
       6.90000000      90.00000000     360.00000000      50.78390424       1.76843591
       7.00000000      90.00000000     360.00000000      50.78394980       1.76843750
       7.10000000      90.00000000     360.00000000      50.78399536       1.76843908
       7.20000000      90.00000000     360.00000000      50.78404092       1.76844067
       7.30000000      90.00000000     360.00000000      50.78408649       1.76844226
       7.40000000      90.00000000     360.00000000      50.78413206       1.76844384
       7.50000000      90.00000000     360.00000000      50.78417763       1.76844543
       7.60000000      90.00000000     360.00000000      50.78422321       1.76844702
       7.70000000      90.00000000     360.00000000      50.78426880       1.76844861
       7.80000000      90.00000000     360.00000000      50.78431438       1.76845019
       7.90000000      90.00000000     360.00000000      50.78435997       1.76845178
       8.00000000      90.00000000     360.00000000      50.78440556       1.76845337
       8.10000000      90.00000000     360.00000000      50.78445116       1.76845496
       8.20000000      90.00000000     360.00000000      50.78449676       1.76845654
       8.30000000      90.00000000     360.00000000      50.78454237       1.76845813
       8.40000000      90.00000000     360.00000000      50.78458797       1.76845972
       8.50000000      90.00000000     360.00000000      50.78463359       1.76846131
       8.60000000      90.00000000     360.00000000      50.78467920       1.76846290
       8.70000000      90.00000000     360.00000000      50.78472482       1.76846449
       8.80000000      90.00000000     360.00000000      50.78477044       1.76846607
       8.90000000      90.00000000     360.00000000      50.78481607       1.76846766
       9.00000000      90.00000000     360.00000000      50.78486170       1.76846925
       9.10000000      90.00000000     360.00000000      50.78490734       1.76847084
       9.20000000      90.00000000     360.00000000      50.78495297       1.76847243
       9.30000000      90.00000000     360.00000000      50.78499862       1.76847402
       9.40000000      90.00000000     360.00000000      50.78504426       1.76847561
       9.50000000      90.00000000     360.00000000      50.78508991       1.76847720
       9.60000000      90.00000000     360.00000000      50.78513556       1.76847879
       9.70000000      90.00000000     360.00000000      50.78518122       1.76848038
       9.80000000      90.00000000     360.00000000      50.78522688       1.76848197
       9.90000000      90.00000000     360.00000000      50.78527254       1.76848356
      10.00000000      90.00000000     360.00000000      50.78531821       1.76848515
      10.10000000      90.00000000     360.00000000      50.78536388       1.76848674
      10.20000000      90.00000000     360.00000000      50.78540956       1.76848833
      10.30000000      90.00000000     360.00000000      50.78545524       1.76848992
      10.40000000      90.00000000     360.00000000      50.78550092       1.76849151
      10.50000000      90.00000000     360.00000000      50.78554661       1.76849310
      10.60000000      90.00000000     360.00000000      50.78559230       1.76849469
      10.70000000      90.00000000     360.00000000      50.78563799       1.76849628
      10.80000000      90.00000000     360.00000000      50.78568369       1.76849788
      10.90000000      90.00000000     360.00000000      50.78572939       1.76849947
      11.00000000      90.00000000     360.00000000      50.78577509       1.76850106
      11.10000000      90.00000000     360.00000000      50.78582080       1.76850265
      11.20000000      90.00000000     360.00000000      50.78586652       1.76850424
      11.30000000      90.00000000     360.00000000      50.78591223       1.76850583
      11.40000000      90.00000000     360.00000000      50.78595795       1.76850743
      11.50000000      90.00000000     360.00000000      50.78600368       1.76850902
      11.60000000      90.00000000     360.00000000      50.78604940       1.76851061
      11.70000000      90.00000000     360.00000000      50.78609513       1.76851220
      11.80000000      90.00000000     360.00000000      50.78614087       1.76851380
      11.90000000      90.00000000     360.00000000      50.78618661       1.76851539
      12.00000000      90.00000000     360.00000000      50.78623235       1.76851698
      12.10000000      90.00000000     360.00000000      50.78627810       1.76851858
      12.20000000      90.00000000     360.00000000      50.78632385       1.76852017
      12.30000000      90.00000000     360.00000000      50.78636960       1.76852176
      12.40000000      90.00000000     360.00000000      50.78641536       1.76852336
      12.50000000      90.00000000     360.00000000      50.78646112       1.76852495
      12.60000000      90.00000000     360.00000000      50.78650689       1.76852654
      12.70000000      90.00000000     360.00000000      50.78655266       1.76852814
      12.80000000      90.00000000     360.00000000      50.78659843       1.76852973
      12.90000000      90.00000000     360.00000000      50.78664421       1.76853132
      13.00000000      90.00000000     360.00000000      50.78668999       1.76853292
      13.10000000      90.00000000     360.00000000      50.78673577       1.76853451
      13.20000000      90.00000000     360.00000000      50.78678156       1.76853611
      13.30000000      90.00000000     360.00000000      50.78682735       1.76853770
      13.40000000      90.00000000     360.00000000      50.78687315       1.76853930
      13.50000000      90.00000000     360.00000000      50.78691895       1.76854089
      13.60000000      90.00000000     360.00000000      50.78696475       1.76854249
      13.70000000      90.00000000     360.00000000      50.78701056       1.76854408
      13.80000000      90.00000000     360.00000000      50.78705637       1.76854568
      13.90000000      90.00000000     360.00000000      50.78710218       1.76854727
      14.00000000      90.00000000     360.00000000      50.78714800       1.76854887
      14.10000000      90.00000000     360.00000000      50.78719382       1.76855046
      14.20000000      90.00000000     360.00000000      50.78723965       1.76855206
      14.30000000      90.00000000     360.00000000      50.78728548       1.76855365
      14.40000000      90.00000000     360.00000000      50.78733131       1.76855525
      14.50000000      90.00000000     360.00000000      50.78737715       1.76855685
      14.60000000      90.00000000     360.00000000      50.78742299       1.76855844
      14.70000000      90.00000000     360.00000000      50.78746884       1.76856004
      14.80000000      90.00000000     360.00000000      50.78751468       1.76856164
      14.90000000      90.00000000     360.00000000      50.78756054       1.76856323
      15.00000000      90.00000000     360.00000000      50.78760639       1.76856483
      15.10000000      90.00000000     360.00000000      50.78765225       1.76856643
      15.20000000      90.00000000     360.00000000      50.78769812       1.76856802
      15.30000000      90.00000000     360.00000000      50.78774399       1.76856962
      15.40000000      90.00000000     360.00000000      50.78778986       1.76857122
      15.50000000      90.00000000     360.00000000      50.78783573       1.76857282
      15.60000000      90.00000000     360.00000000      50.78788161       1.76857441
      15.70000000      90.00000000     360.00000000      50.78792750       1.76857601
      15.80000000      90.00000000     360.00000000      50.78797338       1.76857761
      15.90000000      90.00000000     360.00000000      50.78801927       1.76857921
      16.00000000      90.00000000     360.00000000      50.78806517       1.76858081
      16.10000000      90.00000000     360.00000000      50.78811107       1.76858240
      16.20000000      90.00000000     360.00000000      50.78815697       1.76858400
      16.30000000      90.00000000     360.00000000      50.78820288       1.76858560
      16.40000000      90.00000000     360.00000000      50.78824879       1.76858720
      16.50000000      90.00000000     360.00000000      50.78829470       1.76858880
      16.60000000      90.00000000     360.00000000      50.78834062       1.76859040
      16.70000000      90.00000000     360.00000000      50.78838654       1.76859200
      16.80000000      90.00000000     360.00000000      50.78843246       1.76859360
      16.90000000      90.00000000     360.00000000      50.78847839       1.76859520
      17.00000000      90.00000000     360.00000000      50.78852433       1.76859680
      17.10000000      90.00000000     360.00000000      50.78857026       1.76859839
      17.20000000      90.00000000     360.00000000      50.78861621       1.76859999
      17.30000000      90.00000000     360.00000000      50.78866215       1.76860159
      17.40000000      90.00000000     360.00000000      50.78870810       1.76860319
      17.50000000      90.00000000     360.00000000      50.78875405       1.76860479
      17.60000000      90.00000000     360.00000000      50.78880001       1.76860640
      17.70000000      90.00000000     360.00000000      50.78884597       1.76860800
      17.80000000      90.00000000     360.00000000      50.78889193       1.76860960
      17.90000000      90.00000000     360.00000000      50.78893790       1.76861120
      18.00000000      90.00000000     360.00000000      50.78898387       1.76861280
      18.10000000      90.00000000     360.00000000      50.78902985       1.76861440
      18.20000000      90.00000000     360.00000000      50.78907583       1.76861600
      18.30000000      90.00000000     360.00000000      50.78912181       1.76861760
      18.40000000      90.00000000     360.00000000      50.78916780       1.76861920
      18.50000000      90.00000000     360.00000000      50.78921379       1.76862080
      18.60000000      90.00000000     360.00000000      50.78925978       1.76862241
      18.70000000      90.00000000     360.00000000      50.78930578       1.76862401
      18.80000000      90.00000000     360.00000000      50.78935179       1.76862561
      18.90000000      90.00000000     360.00000000      50.78939779       1.76862721
      19.00000000      90.00000000     360.00000000      50.78944380       1.76862881
      19.10000000      90.00000000     360.00000000      50.78948982       1.76863042
      19.20000000      90.00000000     360.00000000      50.78953584       1.76863202
      19.30000000      90.00000000     360.00000000      50.78958186       1.76863362
      19.40000000      90.00000000     360.00000000      50.78962788       1.76863522
      19.50000000      90.00000000     360.00000000      50.78967391       1.76863683
      19.60000000      90.00000000     360.00000000      50.78971995       1.76863843
      19.70000000      90.00000000     360.00000000      50.78976599       1.76864003
      19.80000000      90.00000000     360.00000000      50.78981203       1.76864164
      19.90000000      90.00000000     360.00000000      50.78985807       1.76864324
      20.00000000      90.00000000     360.00000000      50.78990412       1.76864484
      20.10000000      90.00000000     360.00000000      50.78995018       1.76864645
      20.20000000      90.00000000     360.00000000      50.78999623       1.76864805
      20.30000000      90.00000000     360.00000000      50.79004229       1.76864965
      20.40000000      90.00000000     360.00000000      50.79008836       1.76865126
      20.50000000      90.00000000     360.00000000      50.79013443       1.76865286
      20.60000000      90.00000000     360.00000000      50.79018050       1.76865447
      20.70000000      90.00000000     360.00000000      50.79022658       1.76865607
      20.80000000      90.00000000     360.00000000      50.79027266       1.76865768
      20.90000000      90.00000000     360.00000000      50.79031874       1.76865928
      21.00000000      90.00000000     360.00000000      50.79036483       1.76866089
      21.10000000      90.00000000     360.00000000      50.79041092       1.76866249
      21.20000000      90.00000000     360.00000000      50.79045702       1.76866410
      21.30000000      90.00000000     360.00000000      50.79050312       1.76866570
      21.40000000      90.00000000     360.00000000      50.79054922       1.76866731
      21.50000000      90.00000000     360.00000000      50.79059533       1.76866891
      21.60000000      90.00000000     360.00000000      50.79064144       1.76867052
      21.70000000      90.00000000     360.00000000      50.79068756       1.76867212
      21.80000000      90.00000000     360.00000000      50.79073368       1.76867373
      21.90000000      90.00000000     360.00000000      50.79077980       1.76867534
      22.00000000      90.00000000     360.00000000      50.79082593       1.76867694
      22.10000000      90.00000000     360.00000000      50.79087206       1.76867855
      22.20000000      90.00000000     360.00000000      50.79091820       1.76868016
      22.30000000      90.00000000     360.00000000      50.79096434       1.76868176
      22.40000000      90.00000000     360.00000000      50.79101048       1.76868337
      22.50000000      90.00000000     360.00000000      50.79105663       1.76868498
      22.60000000      90.00000000     360.00000000      50.79110278       1.76868658
      22.70000000      90.00000000     360.00000000      50.79114894       1.76868819
      22.80000000      90.00000000     360.00000000      50.79119510       1.76868980
      22.90000000      90.00000000     360.00000000      50.79124126       1.76869141
      23.00000000      90.00000000     360.00000000      50.79128743       1.76869301
