 # applied field (T), theta (degree), phi (degree), abs [muB/unitcell], abs [T]
       0.00000000       0.00000000       0.00000000      35.82462351       1.20579717
       0.10000000       0.28399707      45.00000000      35.82461740       1.20579696
       0.20000000       0.62464554      45.00000000      35.82459337       1.20579615
       0.30000000       0.90864351      45.00000000      35.82456011       1.20579503
       0.40000000       1.19264230      45.00000000      35.82451462       1.20579350
       0.50000000       1.53329394      45.00000000      35.82444256       1.20579108
       0.60000000       1.81729543      45.00000000      35.82436995       1.20578863
       0.70000000       2.10129855      45.00000000      35.82428513       1.20578578
       0.80000000       2.44195653      45.00000000      35.82416512       1.20578174
       0.90000000       2.72596414      45.00000000      35.82405323       1.20577797
       1.00000000       3.00997420      45.00000000      35.82392918       1.20577380
       1.10000000       3.35064168      45.00000000      35.82376134       1.20576815
       1.20000000       3.63465803      45.00000000      35.82361030       1.20576307
       1.30000000       3.91867764      45.00000000      35.82344713       1.20575757
       1.40000000       4.25935776      45.00000000      35.82323164       1.20575032
       1.50000000       4.54338545      45.00000000      35.82304161       1.20574392
       1.60000000       4.88407612      45.00000000      35.82279338       1.20573557
       1.70000000       5.16811312      45.00000000      35.82257657       1.20572827
       1.80000000       5.45215474      45.00000000      35.82234775       1.20572057
       1.90000000       5.79286336      45.00000000      35.82205227       1.20571062
       2.00000000       6.07691606      45.00000000      35.82179683       1.20570203
       2.10000000       6.36097419      45.00000000      35.82152945       1.20569303
       2.20000000       6.70170387      45.00000000      35.82118702       1.20568150
       2.30000000       6.98577485      45.00000000      35.82089322       1.20567161
       2.40000000       7.26985204      45.00000000      35.82058756       1.20566132
       2.50000000       7.61060589      45.00000000      35.82019854       1.20564823
       2.60000000       7.89469770      45.00000000      35.81986668       1.20563706
       2.70000000       8.17879651      45.00000000      35.81952306       1.20562550
       2.80000000       8.51957761      45.00000000      35.81908786       1.20561085
       2.90000000       8.80369278      45.00000000      35.81871828       1.20559841
       3.00000000       9.08781573      45.00000000      35.81833708       1.20558558
       3.10000000       9.42862714      45.00000000      35.81785613       1.20556939
       3.20000000       9.71276818      45.00000000      35.81744923       1.20555569
       3.30000000      10.05360222      45.00000000      35.81693703       1.20553845
       3.40000000      10.33776254      45.00000000      35.81650464       1.20552390
       3.50000000      10.62193195      45.00000000      35.81606084       1.20550896
       3.60000000      10.96280140      45.00000000      35.81550377       1.20549021
       3.70000000      11.24699179      45.00000000      35.81503479       1.20547443
       3.80000000      11.53119204      45.00000000      35.81455456       1.20545826
       3.90000000      11.87209988      45.00000000      35.81395319       1.20543802
       4.00000000      12.15632279      45.00000000      35.81344812       1.20542102
       4.10000000      12.49725879      45.00000000      35.81281656       1.20539977
       4.20000000      12.78150551      45.00000000      35.81228690       1.20538194
       4.30000000      13.06576337      45.00000000      35.81174627       1.20536374
       4.40000000      13.40674272      45.00000000      35.81107148       1.20534103
       4.50000000      13.69102604      45.00000000      35.81050664       1.20532202
       4.60000000      14.03203693      45.00000000      35.80980245       1.20529832
       4.70000000      14.31634684      45.00000000      35.80921369       1.20527850
       4.80000000      14.60066913      45.00000000      35.80861427       1.20525832
       4.90000000      14.94172823      45.00000000      35.80786804       1.20523321
       5.00000000      15.22607872      45.00000000      35.80724512       1.20521224
       5.10000000      15.56717267      45.00000000      35.80647036       1.20518616
       5.20000000      15.85155246      45.00000000      35.80582425       1.20516442
       5.30000000      16.13594585      45.00000000      35.80516781       1.20514232
       5.40000000      16.47709275      45.00000000      35.80435234       1.20511487
       5.50000000      16.76151702      45.00000000      35.80367318       1.20509201
       5.60000000      17.10270199      45.00000000      35.80283012       1.20506364
       5.70000000      17.38715820      45.00000000      35.80212858       1.20504003
       5.80000000      17.72838253      45.00000000      35.80125833       1.20501073
       5.90000000      18.01287173      45.00000000      35.80053475       1.20498638
       6.00000000      18.29737619      45.00000000      35.79980137       1.20496170
       6.10000000      18.63865994      45.00000000      35.79889248       1.20493110
       6.20000000      18.92319891      45.00000000      35.79813758       1.20490570
       6.30000000      19.26452512      45.00000000      35.79720257       1.20487422
       6.40000000      19.54909961      45.00000000      35.79642653       1.20484810
       6.50000000      19.89046951      45.00000000      35.79546585       1.20481577
       6.60000000      20.17508054      45.00000000      35.79466904       1.20478895
       6.70000000      20.51649534      45.00000000      35.79368316       1.20475577
       6.80000000      20.80114390      45.00000000      35.79286598       1.20472826
       6.90000000      21.14260480      45.00000000      35.79185538       1.20469425
       7.00000000      21.42729188      45.00000000      35.79101823       1.20466607
       7.10000000      21.76880006      45.00000000      35.78998340       1.20463124
       7.20000000      22.05352661      45.00000000      35.78912670       1.20460240
       7.30000000      22.39508324      45.00000000      35.78806813       1.20456677
       7.40000000      22.67985022      45.00000000      35.78719229       1.20453730
       7.50000000      23.02145643      45.00000000      35.78611051       1.20450088
       7.60000000      23.30626476      45.00000000      35.78521597       1.20447078
       7.70000000      23.64792169      45.00000000      35.78411149       1.20443360
       7.80000000      23.93277228      45.00000000      35.78319869       1.20440288
       7.90000000      24.27448102      45.00000000      35.78207206       1.20436496
       8.00000000      24.55937478      45.00000000      35.78114144       1.20433363
       8.10000000      24.90113642      45.00000000      35.77999320       1.20429499
       8.20000000      25.18607422      45.00000000      35.77904522       1.20426308
       8.30000000      25.52788982      45.00000000      35.77787593       1.20422372
       8.40000000      25.81287253      45.00000000      35.77691106       1.20419125
       8.50000000      26.15474313      45.00000000      35.77572128       1.20415120
       8.60000000      26.49664430      45.00000000      35.77452044       1.20411078
       8.70000000      26.78169820      45.00000000      35.77353030       1.20407746
       8.80000000      27.12365594      45.00000000      35.77230988       1.20403638
       8.90000000      27.40875686      45.00000000      35.77130407       1.20400252
       9.00000000      27.75077215      45.00000000      35.77006465       1.20396081
       9.10000000      28.09281939      45.00000000      35.76881500       1.20391875
       9.20000000      28.37799469      45.00000000      35.76778586       1.20388411
       9.30000000      28.72010096      45.00000000      35.76651815       1.20384144
       9.40000000      29.00532527      45.00000000      35.76547462       1.20380631
       9.50000000      29.34749149      45.00000000      35.76418945       1.20376306
       9.60000000      29.68969096      45.00000000      35.76289491       1.20371949
       9.70000000      29.97499263      45.00000000      35.76183006       1.20368365
       9.80000000      30.31725343      45.00000000      35.76051904       1.20363952
       9.90000000      30.65954823      45.00000000      35.75919919       1.20359509
      10.00000000      30.94492898      45.00000000      35.75811426       1.20355858
      10.10000000      31.28728643      45.00000000      35.75677892       1.20351363
      10.20000000      31.62967859      45.00000000      35.75543528       1.20346841
      10.30000000      31.91514006      45.00000000      35.75433157       1.20343126
      10.40000000      32.25759613      45.00000000      35.75297345       1.20338555
      10.50000000      32.60008759      45.00000000      35.75160759       1.20333957
      10.60000000      32.94261467      45.00000000      35.75023419       1.20329335
      10.70000000      33.22818792      45.00000000      35.74910709       1.20325541
      10.80000000      33.57078052      45.00000000      35.74772061       1.20320874
      10.90000000      33.91340938      45.00000000      35.74632715       1.20316184
      11.00000000      34.25607470      45.00000000      35.74492693       1.20311471
      11.10000000      34.59877669      45.00000000      35.74352015       1.20306736
      11.20000000      34.88449472      45.00000000      35.74236701       1.20302855
      11.30000000      35.22726410      45.00000000      35.74094894       1.20298082
      11.40000000      35.57007073      45.00000000      35.73952490       1.20293289
      11.50000000      35.91291480      45.00000000      35.73809509       1.20288477
      11.60000000      36.25579648      45.00000000      35.73665972       1.20283645
      11.70000000      36.59871598      45.00000000      35.73521901       1.20278796
      11.80000000      36.88461386      45.00000000      35.73403973       1.20274827
      11.90000000      37.22760274      45.00000000      35.73258997       1.20269947
      12.00000000      37.57062991      45.00000000      35.73113547       1.20265052
      12.10000000      37.91369555      45.00000000      35.72967643       1.20260141
      12.20000000      38.25679982      45.00000000      35.72821308       1.20255215
      12.30000000      38.59994287      45.00000000      35.72674563       1.20250276
      12.40000000      38.94312485      45.00000000      35.72527430       1.20245324
      12.50000000      39.28634590      45.00000000      35.72379931       1.20240359
      12.60000000      39.62960617      45.00000000      35.72232087       1.20235383
      12.70000000      39.97290580      45.00000000      35.72083921       1.20230396
      12.80000000      40.31624490      45.00000000      35.71935454       1.20225399
      12.90000000      40.65962361      45.00000000      35.71786708       1.20220392
      13.00000000      41.00304205      45.00000000      35.71637707       1.20215377
      13.10000000      41.34650032      45.00000000      35.71488472       1.20210354
      13.20000000      41.68999854      45.00000000      35.71339025       1.20205324
      13.30000000      42.09070098      45.00000000      35.71161607       1.20199353
      13.40000000      42.43428656      45.00000000      35.71011760       1.20194309
      13.50000000      42.77791239      45.00000000      35.70861773       1.20189261
      13.60000000      43.12157857      45.00000000      35.70711668       1.20184208
      13.70000000      43.46528518      45.00000000      35.70561468       1.20179153
      13.80000000      43.80903228      45.00000000      35.70411196       1.20174095
      13.90000000      44.21002864      45.00000000      35.70232875       1.20168093
      14.00000000      44.55386420      45.00000000      35.70082506       1.20163032
      14.10000000      44.89774046      45.00000000      35.69932137       1.20157971
      14.20000000      45.29888927      45.00000000      35.69753737       1.20151966
      14.30000000      45.64285437      45.00000000      35.69603429       1.20146907
      14.40000000      45.98686031      45.00000000      35.69453195       1.20141850
      14.50000000      46.38816217      45.00000000      35.69274987       1.20135852
      14.60000000      46.73225721      45.00000000      35.69124972       1.20130803
      14.70000000      47.13366419      45.00000000      35.68947045       1.20124814
      14.80000000      47.47784842      45.00000000      35.68797360       1.20119776
      14.90000000      47.87936062      45.00000000      35.68619843       1.20113801
      15.00000000      48.22363410      45.00000000      35.68470596       1.20108778
      15.10000000      48.62525154      45.00000000      35.68293617       1.20102821
      15.20000000      48.96961422      45.00000000      35.68144920       1.20097816
      15.30000000      49.37133686      45.00000000      35.67968607       1.20091882
      15.40000000      49.77311639      45.00000000      35.67792699       1.20085961
      15.50000000      50.11761637      45.00000000      35.67645053       1.20080991
      15.60000000      50.51950087      45.00000000      35.67470010       1.20075100
      15.70000000      50.92144210      45.00000000      35.67295478       1.20069225
      15.80000000      51.32343998      45.00000000      35.67121495       1.20063369
      15.90000000      51.72549441      45.00000000      35.66948098       1.20057533
      16.00000000      52.07022697      45.00000000      35.66802831       1.20052643
      16.10000000      52.47238557      45.00000000      35.66630638       1.20046848
      16.20000000      52.87460039      45.00000000      35.66459140       1.20041075
      16.30000000      53.27687128      45.00000000      35.66288373       1.20035328
      16.40000000      53.67919810      45.00000000      35.66118376       1.20029606
      16.50000000      54.13900190      45.00000000      35.65922138       1.20023001
      16.60000000      54.54144857      45.00000000      35.65753899       1.20017338
      16.70000000      54.94395059      45.00000000      35.65586548       1.20011705
      16.80000000      55.34650775      45.00000000      35.65420122       1.20006104
      16.90000000      55.80657630      45.00000000      35.65228094       1.19999640
      17.00000000      56.20925148      45.00000000      35.65063761       1.19994109
      17.10000000      56.66945559      45.00000000      35.64874191       1.19987729
      17.20000000      57.07224764      45.00000000      35.64712123       1.19982274
      17.30000000      57.53258595      45.00000000      35.64525209       1.19975982
      17.40000000      57.93549360      45.00000000      35.64365577       1.19970610
      17.50000000      58.39596460      45.00000000      35.64181513       1.19964414
      17.60000000      58.85650603      45.00000000      35.63999042       1.19958273
      17.70000000      59.31711739      45.00000000      35.63818219       1.19952186
      17.80000000      59.77779817      45.00000000      35.63639099       1.19946157
      17.90000000      60.23854782      45.00000000      35.63461737       1.19940188
      18.00000000      60.69936576      45.00000000      35.63286187       1.19934279
      18.10000000      61.16025141      45.00000000      35.63112504       1.19928433
      18.20000000      61.67878014      45.00000000      35.62916602       1.19921839
      18.30000000      62.13980825      45.00000000      35.62747051       1.19916133
      18.40000000      62.65849702      45.00000000      35.62555908       1.19909699
      18.50000000      63.11966456      45.00000000      35.62390732       1.19904140
      18.60000000      63.63850986      45.00000000      35.62204618       1.19897875
      18.70000000      64.15743688      45.00000000      35.62021268       1.19891704
      18.80000000      64.67644452      45.00000000      35.61840757       1.19885628
      18.90000000      65.25317517      45.00000000      35.61641030       1.19878906
      19.00000000      65.77234995      45.00000000      35.61466741       1.19873040
      19.10000000      66.34926485      45.00000000      35.61274083       1.19866555
      19.20000000      66.86860134      45.00000000      35.61106338       1.19860909
      19.30000000      67.44569427      45.00000000      35.60921103       1.19854674
      19.40000000      68.08057166      45.00000000      35.60719643       1.19847893
      19.50000000      68.65785517      45.00000000      35.60542992       1.19841948
      19.60000000      69.29293908      45.00000000      35.60351180       1.19835492
      19.70000000      69.92812769      45.00000000      35.60164595       1.19829211
      19.80000000      70.56341824      45.00000000      35.59983356       1.19823111
      19.90000000      71.19880787      45.00000000      35.59807579       1.19817195
      20.00000000      71.89204665      45.00000000      35.59619975       1.19810880
      20.10000000      72.64316143      45.00000000      35.59422337       1.19804228
      20.20000000      73.39440440      45.00000000      35.59232799       1.19797849
      20.30000000      74.14577031      45.00000000      35.59051535       1.19791748
      20.40000000      74.95504846      45.00000000      35.58863870       1.19785431
      20.50000000      75.82226302      45.00000000      35.58672105       1.19778977
      20.60000000      76.74743704      45.00000000      35.58478770       1.19772469
      20.70000000      77.67276484      45.00000000      35.58298986       1.19766418
      20.80000000      78.71390826      45.00000000      35.58110106       1.19760061
      20.90000000      79.87091394      45.00000000      35.57918323       1.19753606
      21.00000000      81.14382291      45.00000000      35.57730700       1.19747291
      21.10000000      82.64840416      45.00000000      35.57539941       1.19740870
      21.20000000      84.55837027      45.00000000      35.57347529       1.19734394
      21.30000000      87.68428950      45.00000000      35.57155557       1.19727932
      21.40000000      90.00000000      45.00000000      35.57132934       1.19727171
      21.50000000      90.00000000      45.00000000      35.57158604       1.19728035
      21.60000000      90.00000000      45.00000000      35.57184272       1.19728899
      21.70000000      90.00000000      45.00000000      35.57209938       1.19729763
      21.80000000      90.00000000      45.00000000      35.57235602       1.19730626
      21.90000000      90.00000000      45.00000000      35.57261264       1.19731490
      22.00000000      90.00000000      45.00000000      35.57286923       1.19732354
      22.10000000      90.00000000      45.00000000      35.57312581       1.19733217
      22.20000000      90.00000000      45.00000000      35.57338236       1.19734081
      22.30000000      90.00000000      45.00000000      35.57363889       1.19734944
      22.40000000      90.00000000      45.00000000      35.57389540       1.19735808
      22.50000000      90.00000000      45.00000000      35.57415188       1.19736671
      22.60000000      90.00000000      45.00000000      35.57440835       1.19737534
      22.70000000      90.00000000      45.00000000      35.57466479       1.19738397
      22.80000000      90.00000000      45.00000000      35.57492121       1.19739260
      22.90000000      90.00000000      45.00000000      35.57517761       1.19740123
      23.00000000      90.00000000      45.00000000      35.57543399       1.19740986
