 # applied field (T), theta (degree), phi (degree), abs [muB/unitcell], abs [T]
       0.00000000       0.00000000       0.00000000      44.52236460       1.53198968
       0.10000000       1.02911409     360.00000000      44.52232588       1.53198835
       0.20000000       2.05823411     360.00000000      44.52220981       1.53198435
       0.30000000       3.03022422     360.00000000      44.52203019       1.53197817
       0.40000000       4.05937267     360.00000000      44.52176512       1.53196905
       0.50000000       5.08854437     360.00000000      44.52142429       1.53195732
       0.60000000       6.11774506     360.00000000      44.52100865       1.53194302
       0.70000000       7.14698039     360.00000000      44.52051937       1.53192619
       0.80000000       8.17625592     360.00000000      44.51995782       1.53190686
       0.90000000       9.20557705     360.00000000      44.51932556       1.53188511
       1.00000000      10.23494906     360.00000000      44.51862435       1.53186098
       1.10000000      11.32153716     360.00000000      44.51780885       1.53183292
       1.20000000      12.35102968     360.00000000      44.51697195       1.53180412
       1.30000000      13.43775596     360.00000000      44.51601767       1.53177129
       1.40000000      14.52456124     360.00000000      44.51499616       1.53173614
       1.50000000      15.61145053     360.00000000      44.51391052       1.53169878
       1.60000000      16.69842860     360.00000000      44.51276400       1.53165933
       1.70000000      17.84268726     360.00000000      44.51149115       1.53161553
       1.80000000      18.98705435     360.00000000      44.51015828       1.53156967
       1.90000000      20.13153427     360.00000000      44.50876969       1.53152189
       2.00000000      21.27613100     360.00000000      44.50732984       1.53147234
       2.10000000      22.47805984     360.00000000      44.50576312       1.53141843
       2.20000000      23.68012540     360.00000000      44.50414983       1.53136292
       2.30000000      24.88233072     360.00000000      44.50249546       1.53130599
       2.40000000      26.14191121     360.00000000      44.50071913       1.53124487
       2.50000000      27.40165056     360.00000000      44.49890975       1.53118261
       2.60000000      28.71879870     360.00000000      44.49698440       1.53111636
       2.70000000      30.03612377     360.00000000      44.49503681       1.53104935
       2.80000000      31.41089073     360.00000000      44.49298310       1.53097868
       2.90000000      32.84312402     360.00000000      44.49082917       1.53090456
       3.00000000      34.33284802     360.00000000      44.48858271       1.53082726
       3.10000000      35.82279511     360.00000000      44.48634461       1.53075025
       3.20000000      37.37026145     360.00000000      44.48403360       1.53067073
       3.30000000      39.03257805     360.00000000      44.48157221       1.53058604
       3.40000000      40.69515450     360.00000000      44.47915482       1.53050286
       3.50000000      42.52996597     360.00000000      44.47653424       1.53041268
       3.60000000      44.36506977     360.00000000      44.47399256       1.53032523
       3.70000000      46.37249144     360.00000000      44.47130029       1.53023259
       3.80000000      48.49493707     360.00000000      44.46857558       1.53013883
       3.90000000      50.78980122     360.00000000      44.46578143       1.53004269
       4.00000000      53.31450656     360.00000000      44.46290286       1.52994364
       4.10000000      56.06911374     360.00000000      44.46001370       1.52984422
       4.20000000      59.16845033     360.00000000      44.45708384       1.52974341
       4.30000000      62.72738111     360.00000000      44.45414373       1.52964224
       4.40000000      67.03300911     360.00000000      44.45117819       1.52954020
       4.50000000      72.71697185     360.00000000      44.44819730       1.52943762
       4.60000000      82.47803059     360.00000000      44.44526210       1.52933663
       4.70000000      90.00000000     360.00000000      44.44480460       1.52932088
       4.80000000      90.00000000     360.00000000      44.44505047       1.52932934
       4.90000000      90.00000000     360.00000000      44.44529631       1.52933780
       5.00000000      90.00000000     360.00000000      44.44554213       1.52934626
       5.10000000      90.00000000     360.00000000      44.44578793       1.52935472
       5.20000000      90.00000000     360.00000000      44.44603371       1.52936318
       5.30000000      90.00000000     360.00000000      44.44627946       1.52937163
       5.40000000      90.00000000     360.00000000      44.44652519       1.52938009
       5.50000000      90.00000000     360.00000000      44.44677090       1.52938854
       5.60000000      90.00000000     360.00000000      44.44701658       1.52939700
       5.70000000      90.00000000     360.00000000      44.44726225       1.52940545
       5.80000000      90.00000000     360.00000000      44.44750789       1.52941390
       5.90000000      90.00000000     360.00000000      44.44775350       1.52942235
       6.00000000      90.00000000     360.00000000      44.44799910       1.52943081
       6.10000000      90.00000000     360.00000000      44.44824467       1.52943926
       6.20000000      90.00000000     360.00000000      44.44849022       1.52944770
       6.30000000      90.00000000     360.00000000      44.44873575       1.52945615
       6.40000000      90.00000000     360.00000000      44.44898125       1.52946460
       6.50000000      90.00000000     360.00000000      44.44922673       1.52947305
       6.60000000      90.00000000     360.00000000      44.44947219       1.52948149
       6.70000000      90.00000000     360.00000000      44.44971763       1.52948994
       6.80000000      90.00000000     360.00000000      44.44996304       1.52949838
       6.90000000      90.00000000     360.00000000      44.45020843       1.52950683
       7.00000000      90.00000000     360.00000000      44.45045380       1.52951527
       7.10000000      90.00000000     360.00000000      44.45069915       1.52952371
       7.20000000      90.00000000     360.00000000      44.45094447       1.52953215
       7.30000000      90.00000000     360.00000000      44.45118977       1.52954059
       7.40000000      90.00000000     360.00000000      44.45143505       1.52954903
       7.50000000      90.00000000     360.00000000      44.45168031       1.52955747
       7.60000000      90.00000000     360.00000000      44.45192554       1.52956591
       7.70000000      90.00000000     360.00000000      44.45217075       1.52957435
       7.80000000      90.00000000     360.00000000      44.45241594       1.52958279
       7.90000000      90.00000000     360.00000000      44.45266111       1.52959122
       8.00000000      90.00000000     360.00000000      44.45290625       1.52959966
       8.10000000      90.00000000     360.00000000      44.45315138       1.52960809
       8.20000000      90.00000000     360.00000000      44.45339648       1.52961653
       8.30000000      90.00000000     360.00000000      44.45364155       1.52962496
       8.40000000      90.00000000     360.00000000      44.45388661       1.52963339
       8.50000000      90.00000000     360.00000000      44.45413164       1.52964182
       8.60000000      90.00000000     360.00000000      44.45437665       1.52965025
       8.70000000      90.00000000     360.00000000      44.45462163       1.52965868
       8.80000000      90.00000000     360.00000000      44.45486660       1.52966711
       8.90000000      90.00000000     360.00000000      44.45511154       1.52967554
       9.00000000      90.00000000     360.00000000      44.45535646       1.52968397
       9.10000000      90.00000000     360.00000000      44.45560136       1.52969239
       9.20000000      90.00000000     360.00000000      44.45584623       1.52970082
       9.30000000      90.00000000     360.00000000      44.45609109       1.52970925
       9.40000000      90.00000000     360.00000000      44.45633592       1.52971767
       9.50000000      90.00000000     360.00000000      44.45658073       1.52972609
       9.60000000      90.00000000     360.00000000      44.45682551       1.52973452
       9.70000000      90.00000000     360.00000000      44.45707027       1.52974294
       9.80000000      90.00000000     360.00000000      44.45731502       1.52975136
       9.90000000      90.00000000     360.00000000      44.45755974       1.52975978
      10.00000000      90.00000000     360.00000000      44.45780443       1.52976820
      10.10000000      90.00000000     360.00000000      44.45804911       1.52977662
      10.20000000      90.00000000     360.00000000      44.45829376       1.52978504
      10.30000000      90.00000000     360.00000000      44.45853839       1.52979346
      10.40000000      90.00000000     360.00000000      44.45878300       1.52980187
      10.50000000      90.00000000     360.00000000      44.45902758       1.52981029
      10.60000000      90.00000000     360.00000000      44.45927214       1.52981870
      10.70000000      90.00000000     360.00000000      44.45951668       1.52982712
      10.80000000      90.00000000     360.00000000      44.45976120       1.52983553
      10.90000000      90.00000000     360.00000000      44.46000570       1.52984395
      11.00000000      90.00000000     360.00000000      44.46025017       1.52985236
      11.10000000      90.00000000     360.00000000      44.46049463       1.52986077
      11.20000000      90.00000000     360.00000000      44.46073906       1.52986918
      11.30000000      90.00000000     360.00000000      44.46098346       1.52987759
      11.40000000      90.00000000     360.00000000      44.46122785       1.52988600
      11.50000000      90.00000000     360.00000000      44.46147221       1.52989441
      11.60000000      90.00000000     360.00000000      44.46171655       1.52990282
      11.70000000      90.00000000     360.00000000      44.46196087       1.52991122
      11.80000000      90.00000000     360.00000000      44.46220517       1.52991963
      11.90000000      90.00000000     360.00000000      44.46244944       1.52992803
      12.00000000      90.00000000     360.00000000      44.46269370       1.52993644
      12.10000000      90.00000000     360.00000000      44.46293793       1.52994484
      12.20000000      90.00000000     360.00000000      44.46318214       1.52995324
      12.30000000      90.00000000     360.00000000      44.46342632       1.52996165
      12.40000000      90.00000000     360.00000000      44.46367049       1.52997005
      12.50000000      90.00000000     360.00000000      44.46391463       1.52997845
      12.60000000      90.00000000     360.00000000      44.46415875       1.52998685
      12.70000000      90.00000000     360.00000000      44.46440285       1.52999525
      12.80000000      90.00000000     360.00000000      44.46464692       1.53000365
      12.90000000      90.00000000     360.00000000      44.46489098       1.53001205
      13.00000000      90.00000000     360.00000000      44.46513501       1.53002044
      13.10000000      90.00000000     360.00000000      44.46537902       1.53002884
      13.20000000      90.00000000     360.00000000      44.46562301       1.53003723
      13.30000000      90.00000000     360.00000000      44.46586697       1.53004563
      13.40000000      90.00000000     360.00000000      44.46611092       1.53005402
      13.50000000      90.00000000     360.00000000      44.46635484       1.53006242
      13.60000000      90.00000000     360.00000000      44.46659874       1.53007081
      13.70000000      90.00000000     360.00000000      44.46684262       1.53007920
      13.80000000      90.00000000     360.00000000      44.46708647       1.53008759
      13.90000000      90.00000000     360.00000000      44.46733031       1.53009598
      14.00000000      90.00000000     360.00000000      44.46757412       1.53010437
      14.10000000      90.00000000     360.00000000      44.46781791       1.53011276
      14.20000000      90.00000000     360.00000000      44.46806168       1.53012115
      14.30000000      90.00000000     360.00000000      44.46830542       1.53012953
      14.40000000      90.00000000     360.00000000      44.46854915       1.53013792
      14.50000000      90.00000000     360.00000000      44.46879285       1.53014631
      14.60000000      90.00000000     360.00000000      44.46903653       1.53015469
      14.70000000      90.00000000     360.00000000      44.46928019       1.53016308
      14.80000000      90.00000000     360.00000000      44.46952383       1.53017146
      14.90000000      90.00000000     360.00000000      44.46976744       1.53017984
      15.00000000      90.00000000     360.00000000      44.47001104       1.53018822
      15.10000000      90.00000000     360.00000000      44.47025461       1.53019660
      15.20000000      90.00000000     360.00000000      44.47049816       1.53020499
      15.30000000      90.00000000     360.00000000      44.47074168       1.53021336
      15.40000000      90.00000000     360.00000000      44.47098519       1.53022174
      15.50000000      90.00000000     360.00000000      44.47122867       1.53023012
      15.60000000      90.00000000     360.00000000      44.47147214       1.53023850
      15.70000000      90.00000000     360.00000000      44.47171558       1.53024688
      15.80000000      90.00000000     360.00000000      44.47195899       1.53025525
      15.90000000      90.00000000     360.00000000      44.47220239       1.53026363
      16.00000000      90.00000000     360.00000000      44.47244577       1.53027200
      16.10000000      90.00000000     360.00000000      44.47268912       1.53028037
      16.20000000      90.00000000     360.00000000      44.47293245       1.53028875
      16.30000000      90.00000000     360.00000000      44.47317576       1.53029712
      16.40000000      90.00000000     360.00000000      44.47341905       1.53030549
      16.50000000      90.00000000     360.00000000      44.47366231       1.53031386
      16.60000000      90.00000000     360.00000000      44.47390556       1.53032223
      16.70000000      90.00000000     360.00000000      44.47414878       1.53033060
      16.80000000      90.00000000     360.00000000      44.47439198       1.53033897
      16.90000000      90.00000000     360.00000000      44.47463516       1.53034734
      17.00000000      90.00000000     360.00000000      44.47487832       1.53035570
      17.10000000      90.00000000     360.00000000      44.47512145       1.53036407
      17.20000000      90.00000000     360.00000000      44.47536457       1.53037244
      17.30000000      90.00000000     360.00000000      44.47560766       1.53038080
      17.40000000      90.00000000     360.00000000      44.47585073       1.53038916
      17.50000000      90.00000000     360.00000000      44.47609378       1.53039753
      17.60000000      90.00000000     360.00000000      44.47633681       1.53040589
      17.70000000      90.00000000     360.00000000      44.47657981       1.53041425
      17.80000000      90.00000000     360.00000000      44.47682280       1.53042261
      17.90000000      90.00000000     360.00000000      44.47706576       1.53043097
      18.00000000      90.00000000     360.00000000      44.47730870       1.53043933
      18.10000000      90.00000000     360.00000000      44.47755162       1.53044769
      18.20000000      90.00000000     360.00000000      44.47779452       1.53045605
      18.30000000      90.00000000     360.00000000      44.47803740       1.53046441
      18.40000000      90.00000000     360.00000000      44.47828025       1.53047276
      18.50000000      90.00000000     360.00000000      44.47852308       1.53048112
      18.60000000      90.00000000     360.00000000      44.47876590       1.53048947
      18.70000000      90.00000000     360.00000000      44.47900869       1.53049783
      18.80000000      90.00000000     360.00000000      44.47925145       1.53050618
      18.90000000      90.00000000     360.00000000      44.47949420       1.53051453
      19.00000000      90.00000000     360.00000000      44.47973693       1.53052289
      19.10000000      90.00000000     360.00000000      44.47997963       1.53053124
      19.20000000      90.00000000     360.00000000      44.48022231       1.53053959
      19.30000000      90.00000000     360.00000000      44.48046497       1.53054794
      19.40000000      90.00000000     360.00000000      44.48070761       1.53055629
      19.50000000      90.00000000     360.00000000      44.48095023       1.53056464
      19.60000000      90.00000000     360.00000000      44.48119283       1.53057298
      19.70000000      90.00000000     360.00000000      44.48143540       1.53058133
      19.80000000      90.00000000     360.00000000      44.48167796       1.53058968
      19.90000000      90.00000000     360.00000000      44.48192049       1.53059802
      20.00000000      90.00000000     360.00000000      44.48216300       1.53060637
      20.10000000      90.00000000     360.00000000      44.48240549       1.53061471
      20.20000000      90.00000000     360.00000000      44.48264796       1.53062305
      20.30000000      90.00000000     360.00000000      44.48289040       1.53063140
      20.40000000      90.00000000     360.00000000      44.48313283       1.53063974
      20.50000000      90.00000000     360.00000000      44.48337523       1.53064808
      20.60000000      90.00000000     360.00000000      44.48361761       1.53065642
      20.70000000      90.00000000     360.00000000      44.48385997       1.53066476
      20.80000000      90.00000000     360.00000000      44.48410231       1.53067310
      20.90000000      90.00000000     360.00000000      44.48434463       1.53068143
      21.00000000      90.00000000     360.00000000      44.48458693       1.53068977
      21.10000000      90.00000000     360.00000000      44.48482920       1.53069811
      21.20000000      90.00000000     360.00000000      44.48507146       1.53070644
      21.30000000      90.00000000     360.00000000      44.48531369       1.53071478
      21.40000000      90.00000000     360.00000000      44.48555590       1.53072311
      21.50000000      90.00000000     360.00000000      44.48579809       1.53073145
      21.60000000      90.00000000     360.00000000      44.48604026       1.53073978
      21.70000000      90.00000000     360.00000000      44.48628241       1.53074811
      21.80000000      90.00000000     360.00000000      44.48652453       1.53075644
      21.90000000      90.00000000     360.00000000      44.48676664       1.53076477
      22.00000000      90.00000000     360.00000000      44.48700872       1.53077310
      22.10000000      90.00000000     360.00000000      44.48725078       1.53078143
      22.20000000      90.00000000     360.00000000      44.48749283       1.53078976
      22.30000000      90.00000000     360.00000000      44.48773485       1.53079809
      22.40000000      90.00000000     360.00000000      44.48797684       1.53080642
      22.50000000      90.00000000     360.00000000      44.48821882       1.53081474
      22.60000000      90.00000000     360.00000000      44.48846078       1.53082307
      22.70000000      90.00000000     360.00000000      44.48870271       1.53083139
      22.80000000      90.00000000     360.00000000      44.48894463       1.53083972
      22.90000000      90.00000000     360.00000000      44.48918652       1.53084804
      23.00000000      90.00000000     360.00000000      44.48942839       1.53085636
