 # applied field (T), theta (degree), phi (degree), abs for RE 3-4
     0.00000   180.00000   360.00000     3.79005   180.00000   360.00000     3.79005
     0.10000   179.67894   180.00000     3.79001   179.64480   180.00000     3.79004
     0.20000   179.35787   180.00000     3.78990   179.28960   180.00000     3.79001
     0.30000   179.03678   180.00000     3.78972   178.93439   180.00000     3.78997
     0.40000   178.66965   180.00000     3.78942   178.52831   180.00000     3.78990
     0.50000   178.34849   180.00000     3.78908   178.17305   180.00000     3.78982
     0.60000   178.02729   180.00000     3.78867   177.81776   180.00000     3.78972
     0.70000   177.70604   180.00000     3.78818   177.46242   180.00000     3.78961
     0.80000   177.38472   180.00000     3.78762   177.10704   180.00000     3.78948
     0.90000   177.06332   180.00000     3.78699   176.75162   180.00000     3.78933
     1.00000   176.69577   180.00000     3.78617   176.34525   180.00000     3.78914
     1.10000   176.37420   180.00000     3.78538   175.98969   180.00000     3.78895
     1.20000   176.05252   180.00000     3.78452   175.63406   180.00000     3.78875
     1.30000   175.73073   180.00000     3.78359   175.27835   180.00000     3.78853
     1.40000   175.40882   180.00000     3.78258   174.92255   180.00000     3.78829
     1.50000   175.08678   180.00000     3.78150   174.56667   180.00000     3.78803
     1.60000   174.71843   180.00000     3.78018   174.15974   180.00000     3.78772
     1.70000   174.39609   180.00000     3.77894   173.80365   180.00000     3.78743
     1.80000   174.07359   180.00000     3.77763   173.44744   180.00000     3.78712
     1.90000   173.75092   180.00000     3.77625   173.09112   180.00000     3.78680
     2.00000   173.42808   180.00000     3.77480   172.73467   180.00000     3.78645
     2.10000   173.10506   180.00000     3.77328   172.37810   180.00000     3.78609
     2.20000   172.73551   180.00000     3.77145   171.97033   180.00000     3.78566
     2.30000   172.41206   180.00000     3.76978   171.61346   180.00000     3.78527
     2.40000   172.08839   180.00000     3.76803   171.25644   180.00000     3.78485
     2.50000   171.76450   180.00000     3.76621   170.89927   180.00000     3.78442
     2.60000   171.39391   180.00000     3.76405   170.49079   180.00000     3.78391
     2.70000   171.06951   180.00000     3.76208   170.13326   180.00000     3.78344
     2.80000   170.74486   180.00000     3.76004   169.77556   180.00000     3.78296
     2.90000   170.41994   180.00000     3.75792   169.41767   180.00000     3.78246
     3.00000   170.04813   180.00000     3.75543   169.00835   180.00000     3.78187
     3.10000   169.72261   180.00000     3.75317   168.65005   180.00000     3.78133
     3.20000   169.39680   180.00000     3.75084   168.29156   180.00000     3.78078
     3.30000   169.07069   180.00000     3.74844   167.93286   180.00000     3.78021
     3.40000   168.69746   180.00000     3.74562   167.52256   180.00000     3.77953
     3.50000   168.37066   180.00000     3.74308   167.16340   180.00000     3.77893
     3.60000   168.04352   180.00000     3.74046   166.80400   180.00000     3.77831
     3.70000   167.66908   180.00000     3.73740   166.39289   180.00000     3.77757
     3.80000   167.34119   180.00000     3.73464   166.03298   180.00000     3.77692
     3.90000   167.01293   180.00000     3.73181   165.67283   180.00000     3.77624
     4.00000   166.63717   180.00000     3.72851   165.26083   180.00000     3.77545
     4.10000   166.30809   180.00000     3.72554   164.90013   180.00000     3.77474
     4.20000   165.97860   180.00000     3.72251   164.53915   180.00000     3.77401
     4.30000   165.60140   180.00000     3.71897   164.12619   180.00000     3.77316
     4.40000   165.27101   180.00000     3.71580   163.76462   180.00000     3.77240
     4.50000   164.94018   180.00000     3.71257   163.40276   180.00000     3.77162
     4.60000   164.56142   180.00000     3.70879   162.98877   180.00000     3.77071
     4.70000   164.22962   180.00000     3.70542   162.62627   180.00000     3.76990
     4.80000   163.84971   180.00000     3.70150   162.21153   180.00000     3.76895
     4.90000   163.51689   180.00000     3.69800   161.84836   180.00000     3.76810
     5.00000   163.13579   180.00000     3.69392   161.43284   180.00000     3.76711
     5.10000   162.80189   180.00000     3.69029   161.06897   180.00000     3.76623
     5.20000   162.41952   180.00000     3.68607   160.65263   180.00000     3.76520
     5.30000   162.08449   180.00000     3.68230   160.28804   180.00000     3.76429
     5.40000   161.70080   180.00000     3.67794   159.87086   180.00000     3.76322
     5.50000   161.36458   180.00000     3.67405   159.50551   180.00000     3.76227
     5.60000   160.97950   180.00000     3.66954   159.08744   180.00000     3.76117
     5.70000   160.64204   180.00000     3.66553   158.72130   180.00000     3.76018
     5.80000   160.25551   180.00000     3.66089   158.30231   180.00000     3.75904
     5.90000   159.86818   180.00000     3.65618   157.88283   180.00000     3.75788
     6.00000   159.52869   180.00000     3.65199   157.51542   180.00000     3.75684
     6.10000   159.13981   180.00000     3.64714   157.09497   180.00000     3.75564
     6.20000   158.75006   180.00000     3.64223   156.67398   180.00000     3.75442
     6.30000   158.40842   180.00000     3.63787   156.30524   180.00000     3.75334
     6.40000   158.01701   180.00000     3.63283   155.88324   180.00000     3.75208
     6.50000   157.62468   180.00000     3.62773   155.46067   180.00000     3.75081
     6.60000   157.28074   180.00000     3.62321   155.09053   180.00000     3.74968
     6.70000   156.88664   180.00000     3.61800   154.66689   180.00000     3.74836
     6.80000   156.49157   180.00000     3.61272   154.24267   180.00000     3.74703
     6.90000   156.09550   180.00000     3.60739   153.81785   180.00000     3.74568
     7.00000   155.69842   180.00000     3.60200   153.39243   180.00000     3.74432
     7.10000   155.30030   180.00000     3.59655   152.96639   180.00000     3.74293
     7.20000   154.95117   180.00000     3.59174   152.59317   180.00000     3.74170
     7.30000   154.55104   180.00000     3.58619   152.16595   180.00000     3.74028
     7.40000   154.14980   180.00000     3.58060   151.73809   180.00000     3.73884
     7.50000   153.74745   180.00000     3.57496   151.30959   180.00000     3.73738
     7.60000   153.34394   180.00000     3.56927   150.88042   180.00000     3.73591
     7.70000   152.93927   180.00000     3.56354   150.45058   180.00000     3.73441
     7.80000   152.53340   180.00000     3.55776   150.02006   180.00000     3.73291
     7.90000   152.07526   180.00000     3.55122   149.53485   180.00000     3.73119
     8.00000   151.66678   180.00000     3.54536   149.10285   180.00000     3.72964
     8.10000   151.25704   180.00000     3.53947   148.67015   180.00000     3.72808
     8.20000   150.84601   180.00000     3.53354   148.23674   180.00000     3.72650
     8.30000   150.43367   180.00000     3.52758   147.80259   180.00000     3.72491
     8.40000   149.96811   180.00000     3.52085   147.31324   180.00000     3.72310
     8.50000   149.55290   180.00000     3.51483   146.87752   180.00000     3.72147
     8.60000   149.13631   180.00000     3.50878   146.44105   180.00000     3.71982
     8.70000   148.66588   180.00000     3.50196   145.94904   180.00000     3.71796
     8.80000   148.24626   180.00000     3.49588   145.51094   180.00000     3.71628
     8.90000   147.77237   180.00000     3.48901   145.01707   180.00000     3.71438
     9.00000   147.34963   180.00000     3.48290   144.57729   180.00000     3.71268
     9.10000   146.87216   180.00000     3.47600   144.08152   180.00000     3.71074
     9.20000   146.44618   180.00000     3.46986   143.64003   180.00000     3.70901
     9.30000   145.96501   180.00000     3.46295   143.14231   180.00000     3.70704
     9.40000   145.48184   180.00000     3.45604   142.64355   180.00000     3.70506
     9.50000   145.05070   180.00000     3.44989   142.19936   180.00000     3.70328
     9.60000   144.56366   180.00000     3.44299   141.69859   180.00000     3.70127
     9.70000   144.07451   180.00000     3.43609   141.19673   180.00000     3.69924
     9.80000   143.58323   180.00000     3.42920   140.69378   180.00000     3.69720
     9.90000   143.08979   180.00000     3.42233   140.18973   180.00000     3.69514
    10.00000   142.59416   180.00000     3.41548   139.68456   180.00000     3.69308
    10.10000   142.09632   180.00000     3.40866   139.17827   180.00000     3.69099
    10.20000   141.59622   180.00000     3.40187   138.67084   180.00000     3.68890
    10.30000   141.03784   180.00000     3.39436   138.10564   180.00000     3.68656
    10.40000   140.53291   180.00000     3.38764   137.59579   180.00000     3.68444
    10.50000   140.02566   180.00000     3.38097   137.08477   180.00000     3.68231
    10.60000   139.45923   180.00000     3.37361   136.51554   180.00000     3.67994
    10.70000   138.88988   180.00000     3.36632   135.94486   180.00000     3.67755
    10.80000   138.37496   180.00000     3.35982   135.43002   180.00000     3.67539
    10.90000   137.79996   180.00000     3.35267   134.85652   180.00000     3.67298
    11.00000   137.22194   180.00000     3.34560   134.28153   180.00000     3.67057
    11.10000   136.64090   180.00000     3.33862   133.70503   180.00000     3.66815
    11.20000   136.05681   180.00000     3.33174   133.12702   180.00000     3.66572
    11.30000   135.46966   180.00000     3.32496   132.54749   180.00000     3.66328
    11.40000   134.87944   180.00000     3.31828   131.96641   180.00000     3.66084
    11.50000   134.28614   180.00000     3.31172   131.38380   180.00000     3.65840
    11.60000   133.62992   180.00000     3.30464   130.74110   180.00000     3.65571
    11.70000   132.96997   180.00000     3.29771   130.09652   180.00000     3.65302
    11.80000   132.36680   180.00000     3.29155   129.50893   180.00000     3.65057
    11.90000   131.69974   180.00000     3.28493   128.86074   180.00000     3.64788
    12.00000   131.02898   180.00000     3.27849   128.21064   180.00000     3.64519
    12.10000   130.35455   180.00000     3.27222   127.55863   180.00000     3.64251
    12.20000   129.61462   180.00000     3.26560   126.84514   180.00000     3.63959
    12.30000   128.93258   180.00000     3.25973   126.18913   180.00000     3.63692
    12.40000   128.18446   180.00000     3.25355   125.47127   180.00000     3.63402
    12.50000   127.43213   180.00000     3.24761   124.75113   180.00000     3.63113
    12.60000   126.67568   180.00000     3.24191   124.02871   180.00000     3.62826
    12.70000   125.91517   180.00000     3.23648   123.30402   180.00000     3.62540
    12.80000   125.08679   180.00000     3.23087   122.51636   180.00000     3.62233
    12.90000   124.25384   180.00000     3.22558   121.72604   180.00000     3.61929
    13.00000   123.41645   180.00000     3.22060   120.93309   180.00000     3.61627
    13.10000   122.50980   180.00000     3.21558   120.07618   180.00000     3.61306
    13.20000   121.66355   180.00000     3.21125   119.27780   180.00000     3.61012
    13.30000   120.68206   180.00000     3.20664   118.35334   180.00000     3.60677
    13.40000   119.76126   180.00000     3.20272   117.48746   180.00000     3.60369
    13.50000   118.76981   180.00000     3.19891   116.55647   180.00000     3.60045
    13.60000   117.70688   180.00000     3.19530   115.55976   180.00000     3.59707
    13.70000   116.63860   180.00000     3.19214   114.55934   180.00000     3.59377
    13.80000   115.56516   180.00000     3.18942   113.55531   180.00000     3.59055
    13.90000   114.35157   180.00000     3.18685   112.42152   180.00000     3.58703
    14.00000   113.13187   180.00000     3.18479   111.28337   180.00000     3.58364
    14.10000   111.76968   180.00000     3.18305   110.01380   180.00000     3.58003
    14.20000   110.40033   180.00000     3.18185   108.73924   180.00000     3.57658
    14.30000   108.88595   180.00000     3.18107   107.33171   180.00000     3.57301
    14.40000   107.22435   180.00000     3.18080   105.79002   180.00000     3.56937
    14.50000   105.41322   180.00000     3.18104   104.11306   180.00000     3.56575
    14.60000   103.30941   180.00000     3.18185   102.17012   180.00000     3.56203
    14.70000   100.76575   180.00000     3.18328    99.82872   180.00000     3.55824
    14.80000    97.41632   180.00000     3.18532    96.75870   180.00000     3.55444
    14.90000    90.00000   180.00000     3.18773    90.00000   180.00000     3.55101
    15.00000    90.00000   180.00000     3.18775    90.00000   180.00000     3.55100
    15.10000    90.00000   180.00000     3.18777    90.00000   180.00000     3.55098
    15.20000    90.00000   180.00000     3.18779    90.00000   180.00000     3.55097
    15.30000    90.00000   180.00000     3.18782    90.00000   180.00000     3.55096
    15.40000    90.00000   180.00000     3.18784    90.00000   180.00000     3.55095
    15.50000    90.00000   180.00000     3.18786    90.00000   180.00000     3.55094
    15.60000    90.00000   180.00000     3.18788    90.00000   180.00000     3.55093
    15.70000    90.00000   180.00000     3.18790    90.00000   180.00000     3.55092
    15.80000    90.00000   180.00000     3.18792    90.00000   180.00000     3.55091
    15.90000    90.00000   180.00000     3.18795    90.00000   180.00000     3.55090
    16.00000    90.00000   180.00000     3.18797    90.00000   180.00000     3.55089
    16.10000    90.00000   180.00000     3.18799    90.00000   180.00000     3.55088
    16.20000    90.00000   180.00000     3.18801    90.00000   180.00000     3.55086
    16.30000    90.00000   180.00000     3.18803    90.00000   180.00000     3.55085
    16.40000    90.00000   180.00000     3.18805    90.00000   180.00000     3.55084
    16.50000    90.00000   180.00000     3.18807    90.00000   180.00000     3.55083
    16.60000    90.00000   180.00000     3.18810    90.00000   180.00000     3.55082
    16.70000    90.00000   180.00000     3.18812    90.00000   180.00000     3.55081
    16.80000    90.00000   180.00000     3.18814    90.00000   180.00000     3.55080
    16.90000    90.00000   180.00000     3.18816    90.00000   180.00000     3.55079
    17.00000    90.00000   180.00000     3.18818    90.00000   180.00000     3.55078
    17.10000    90.00000   180.00000     3.18820    90.00000   180.00000     3.55076
    17.20000    90.00000   180.00000     3.18822    90.00000   180.00000     3.55075
    17.30000    90.00000   180.00000     3.18825    90.00000   180.00000     3.55074
    17.40000    90.00000   180.00000     3.18827    90.00000   180.00000     3.55073
    17.50000    90.00000   180.00000     3.18829    90.00000   180.00000     3.55072
    17.60000    90.00000   180.00000     3.18831    90.00000   180.00000     3.55071
    17.70000    90.00000   180.00000     3.18833    90.00000   180.00000     3.55070
    17.80000    90.00000   180.00000     3.18835    90.00000   180.00000     3.55069
    17.90000    90.00000   180.00000     3.18837    90.00000   180.00000     3.55067
    18.00000    90.00000   180.00000     3.18839    90.00000   180.00000     3.55066
    18.10000    90.00000   180.00000     3.18841    90.00000   180.00000     3.55065
    18.20000    90.00000   180.00000     3.18843    90.00000   180.00000     3.55064
    18.30000    90.00000   180.00000     3.18846    90.00000   180.00000     3.55063
    18.40000    90.00000   180.00000     3.18848    90.00000   180.00000     3.55062
    18.50000    90.00000   180.00000     3.18850    90.00000   180.00000     3.55061
    18.60000    90.00000   180.00000     3.18852    90.00000   180.00000     3.55059
    18.70000    90.00000   180.00000     3.18854    90.00000   180.00000     3.55058
    18.80000    90.00000   180.00000     3.18856    90.00000   180.00000     3.55057
    18.90000    90.00000   180.00000     3.18858    90.00000   180.00000     3.55056
    19.00000    90.00000   180.00000     3.18860    90.00000   180.00000     3.55055
    19.10000    90.00000   180.00000     3.18862    90.00000   180.00000     3.55054
    19.20000    90.00000   180.00000     3.18864    90.00000   180.00000     3.55052
    19.30000    90.00000   180.00000     3.18866    90.00000   180.00000     3.55051
    19.40000    90.00000   180.00000     3.18868    90.00000   180.00000     3.55050
    19.50000    90.00000   180.00000     3.18870    90.00000   180.00000     3.55049
    19.60000    90.00000   180.00000     3.18873    90.00000   180.00000     3.55048
    19.70000    90.00000   180.00000     3.18875    90.00000   180.00000     3.55047
    19.80000    90.00000   180.00000     3.18877    90.00000   180.00000     3.55045
    19.90000    90.00000   180.00000     3.18879    90.00000   180.00000     3.55044
    20.00000    90.00000   180.00000     3.18881    90.00000   180.00000     3.55043
    20.10000    90.00000   180.00000     3.18883    90.00000   180.00000     3.55042
    20.20000    90.00000   180.00000     3.18885    90.00000   180.00000     3.55041
    20.30000    90.00000   180.00000     3.18887    90.00000   180.00000     3.55040
    20.40000    90.00000   180.00000     3.18889    90.00000   180.00000     3.55038
    20.50000    90.00000   180.00000     3.18891    90.00000   180.00000     3.55037
    20.60000    90.00000   180.00000     3.18893    90.00000   180.00000     3.55036
    20.70000    90.00000   180.00000     3.18895    90.00000   180.00000     3.55035
    20.80000    90.00000   180.00000     3.18897    90.00000   180.00000     3.55034
    20.90000    90.00000   180.00000     3.18899    90.00000   180.00000     3.55032
    21.00000    90.00000   180.00000     3.18901    90.00000   180.00000     3.55031
    21.10000    90.00000   180.00000     3.18903    90.00000   180.00000     3.55030
    21.20000    90.00000   180.00000     3.18905    90.00000   180.00000     3.55029
    21.30000    90.00000   180.00000     3.18907    90.00000   180.00000     3.55028
    21.40000    90.00000   180.00000     3.18909    90.00000   180.00000     3.55026
    21.50000    90.00000   180.00000     3.18911    90.00000   180.00000     3.55025
    21.60000    90.00000   180.00000     3.18913    90.00000   180.00000     3.55024
    21.70000    90.00000   180.00000     3.18915    90.00000   180.00000     3.55023
    21.80000    90.00000   180.00000     3.18917    90.00000   180.00000     3.55022
    21.90000    90.00000   180.00000     3.18919    90.00000   180.00000     3.55020
    22.00000    90.00000   180.00000     3.18921    90.00000   180.00000     3.55019
    22.10000    90.00000   180.00000     3.18923    90.00000   180.00000     3.55018
    22.20000    90.00000   180.00000     3.18925    90.00000   180.00000     3.55017
    22.30000    90.00000   180.00000     3.18927    90.00000   180.00000     3.55015
    22.40000    90.00000   180.00000     3.18929    90.00000   180.00000     3.55014
    22.50000    90.00000   180.00000     3.18931    90.00000   180.00000     3.55013
    22.60000    90.00000   180.00000     3.18933    90.00000   180.00000     3.55012
    22.70000    90.00000   180.00000     3.18935    90.00000   180.00000     3.55011
    22.80000    90.00000   180.00000     3.18937    90.00000   180.00000     3.55009
    22.90000    90.00000   180.00000     3.18939    90.00000   180.00000     3.55008
    23.00000    90.00000   180.00000     3.18941    90.00000   180.00000     3.55007
    23.10000    90.00000   180.00000     3.18943    90.00000   180.00000     3.55006
    23.20000    90.00000   180.00000     3.18945    90.00000   180.00000     3.55004
    23.30000    90.00000   180.00000     3.18947    90.00000   180.00000     3.55003
