 # applied field (T), theta (degree), phi (degree), abs for RE 3-4
     0.00000   179.61876   135.00000     4.39350   179.61876    45.00000     4.39350
     0.10000   179.32279   155.83635     4.39361   179.72659   106.77548     4.39338
     0.20000   178.99292   163.57936     4.39370   179.50274   149.30869     4.39325
     0.30000   178.65395   167.47083     4.39379   179.18553   162.44414     4.39312
     0.40000   178.31143   169.79486     4.39387   178.84954   168.09301     4.39297
     0.50000   177.96720   171.33728     4.39394   178.50719   171.18014     4.39282
     0.60000   177.62202   172.43577     4.39399   178.16186   173.11855     4.39265
     0.70000   177.27627   173.25853     4.39404   177.81479   174.44823     4.39248
     0.80000   176.93014   173.89849     4.39408   177.46656   175.41771     4.39229
     0.90000   176.58374   174.41110     4.39411   177.11743   176.15680     4.39210
     1.00000   176.23713   174.83146     4.39413   176.76756   176.73976     4.39189
     1.10000   175.89034   175.18286     4.39413   176.41704   177.21210     4.39168
     1.20000   175.54339   175.48138     4.39413   176.06590   177.60324     4.39146
     1.30000   175.19629   175.73844     4.39412   175.71419   177.93303     4.39123
     1.40000   174.84902   175.96239     4.39410   175.36190   178.21535     4.39099
     1.50000   174.50159   176.15949     4.39407   175.00904   178.46020     4.39074
     1.60000   174.15399   176.33449     4.39403   174.65561   178.67495     4.39048
     1.70000   173.80620   176.49110     4.39398   174.30160   178.86517     4.39021
     1.80000   173.45821   176.63222     4.39392   173.94700   179.03515     4.38994
     1.90000   173.11000   176.76018     4.39385   173.59180   179.18820     4.38965
     2.00000   172.71182   176.89274     4.39376   173.18515   179.34563     4.38932
     2.10000   172.36309   176.99839     4.39366   172.82861   179.47069     4.38901
     2.20000   172.01410   177.09572     4.39356   172.47142   179.58556     4.38870
     2.30000   171.66482   177.18575     4.39345   172.11357   179.69159     4.38838
     2.40000   171.26532   177.28085     4.39332   171.70382   179.80328     4.38801
     2.50000   170.91536   177.35798     4.39319   171.34449   179.89400     4.38767
     2.60000   170.51503   177.44007     4.39303   170.93301   179.99046     4.38728
     2.70000   170.16431   177.50712     4.39288   170.57211   180.06950     4.38692
     2.80000   169.76307   177.57893     4.39269   170.15881   180.15420     4.38651
     2.90000   169.41150   177.63793     4.39252   169.79629   180.22414     4.38614
     3.00000   169.00924   177.70145     4.39232   169.38107   180.29959     4.38571
     3.10000   168.60639   177.76118     4.39210   168.96481   180.37089     4.38527
     3.20000   168.25335   177.81063     4.39190   168.59962   180.43032     4.38488
     3.30000   167.84933   177.86422     4.39166   168.18132   180.49499     4.38442
     3.40000   167.44465   177.91495     4.39141   167.76188   180.55664     4.38396
     3.50000   167.03927   177.96307     4.39115   167.34131   180.61556     4.38349
     3.60000   166.63317   178.00880     4.39087   166.91956   180.67201     4.38301
     3.70000   166.17547   178.05763     4.39055   166.44375   180.73276     4.38246
     3.80000   165.76775   178.09888     4.39026   166.01946   180.78467     4.38196
     3.90000   165.35923   178.13826     4.38995   165.59393   180.83473     4.38146
     4.00000   164.89870   178.18051     4.38959   165.11378   180.88894     4.38089
     4.10000   164.48838   178.21635     4.38926   164.68557   180.93556     4.38037
     4.20000   164.02576   178.25489     4.38888   164.20236   180.98622     4.37979
     4.30000   163.56198   178.29166     4.38848   163.71750   181.03524     4.37919
     4.40000   163.09701   178.32679     4.38808   163.23096   181.08274     4.37860
     4.50000   162.63080   178.36039     4.38766   162.74272   181.12883     4.37799
     4.60000   162.16333   178.39254     4.38722   162.25276   181.17364     4.37738
     4.70000   161.64245   178.42667     4.38673   161.70641   181.22195     4.37670
     4.80000   161.11992   178.45922     4.38622   161.15789   181.26891     4.37602
     4.90000   160.59570   178.49029     4.38570   160.60719   181.31459     4.37533
     5.00000   160.06974   178.51996     4.38517   160.05430   181.35910     4.37464
     5.10000   159.54200   178.54830     4.38462   159.49920   181.40250     4.37394
     5.20000   158.95943   178.57802     4.38401   158.88610   181.44901     4.37318
     5.30000   158.37461   178.60629     4.38338   158.27033   181.49435     4.37242
     5.40000   157.78748   178.63318     4.38274   157.65186   181.53860     4.37166
     5.50000   157.14435   178.66101     4.38203   156.97419   181.58566     4.37083
     5.60000   156.49836   178.68733     4.38130   156.29333   181.63155     4.37001
     5.70000   155.79529   178.71423     4.38050   155.55224   181.68000     4.36912
     5.80000   155.08874   178.73951     4.37969   154.80749   181.72721     4.36825
     5.90000   154.32392   178.76499     4.37880   154.00146   181.77673     4.36733
     6.00000   153.49988   178.79036     4.37783   153.13334   181.82830     4.36636
     6.10000   152.61558   178.81529     4.37679   152.20232   181.88171     4.36535
     6.20000    89.44548   177.61321     4.35772    90.55452   182.38679     4.35772
     6.30000    89.44555   177.61342     4.35768    90.55445   182.38658     4.35768
     6.40000    89.44561   177.61363     4.35764    90.55439   182.38637     4.35764
     6.50000    89.44567   177.61384     4.35759    90.55433   182.38616     4.35759
     6.60000    89.44573   177.61406     4.35755    90.55427   182.38594     4.35755
     6.70000    89.44579   177.61427     4.35751    90.55421   182.38573     4.35751
     6.80000    89.44585   177.61448     4.35746    90.55415   182.38552     4.35746
     6.90000    89.44591   177.61469     4.35742    90.55409   182.38531     4.35742
     7.00000    89.44597   177.61490     4.35737    90.55403   182.38510     4.35737
     7.10000    89.44603   177.61511     4.35733    90.55397   182.38489     4.35733
     7.20000    89.44609   177.61532     4.35729    90.55391   182.38468     4.35729
     7.30000    89.44616   177.61553     4.35724    90.55384   182.38447     4.35724
     7.40000    89.44622   177.61574     4.35720    90.55378   182.38426     4.35720
     7.50000    89.44628   177.61595     4.35715    90.55372   182.38405     4.35715
     7.60000    89.44634   177.61616     4.35711    90.55366   182.38384     4.35711
     7.70000    89.44640   177.61637     4.35707    90.55360   182.38363     4.35707
     7.80000    89.44646   177.61658     4.35702    90.55354   182.38342     4.35702
     7.90000    89.44652   177.61679     4.35698    90.55348   182.38321     4.35698
     8.00000    89.44658   177.61700     4.35694    90.55342   182.38300     4.35694
     8.10000    89.44664   177.61721     4.35689    90.55336   182.38279     4.35689
     8.20000    89.44670   177.61742     4.35685    90.55330   182.38258     4.35685
     8.30000    89.44676   177.61763     4.35680    90.55324   182.38237     4.35680
     8.40000    89.44682   177.61783     4.35676    90.55318   182.38217     4.35676
     8.50000    89.44688   177.61804     4.35672    90.55312   182.38196     4.35672
     8.60000    89.44694   177.61825     4.35667    90.55306   182.38175     4.35667
     8.70000    89.44700   177.61846     4.35663    90.55300   182.38154     4.35663
     8.80000    89.44706   177.61867     4.35658    90.55294   182.38133     4.35658
     8.90000    89.44713   177.61888     4.35654    90.55287   182.38112     4.35654
     9.00000    89.44719   177.61909     4.35650    90.55281   182.38091     4.35650
     9.10000    89.44725   177.61930     4.35645    90.55275   182.38070     4.35645
     9.20000    89.44731   177.61950     4.35641    90.55269   182.38050     4.35641
     9.30000    89.44737   177.61971     4.35636    90.55263   182.38029     4.35636
     9.40000    89.44743   177.61992     4.35632    90.55257   182.38008     4.35632
     9.50000    89.44749   177.62013     4.35628    90.55251   182.37987     4.35628
     9.60000    89.44755   177.62034     4.35623    90.55245   182.37966     4.35623
     9.70000    89.44761   177.62055     4.35619    90.55239   182.37945     4.35619
     9.80000    89.44767   177.62075     4.35614    90.55233   182.37925     4.35614
     9.90000    89.44773   177.62096     4.35610    90.55227   182.37904     4.35610
    10.00000    89.44779   177.62117     4.35606    90.55221   182.37883     4.35606
    10.10000    89.44785   177.62138     4.35601    90.55215   182.37862     4.35601
    10.20000    89.44791   177.62158     4.35597    90.55209   182.37842     4.35597
    10.30000    89.44797   177.62179     4.35592    90.55203   182.37821     4.35592
    10.40000    89.44803   177.62200     4.35588    90.55197   182.37800     4.35588
    10.50000    89.44809   177.62221     4.35584    90.55191   182.37779     4.35584
    10.60000    89.44815   177.62241     4.35579    90.55185   182.37759     4.35579
    10.70000    89.44821   177.62262     4.35575    90.55179   182.37738     4.35575
    10.80000    89.44827   177.62283     4.35570    90.55173   182.37717     4.35570
    10.90000    89.44833   177.62303     4.35566    90.55167   182.37697     4.35566
    11.00000    89.44839   177.62324     4.35561    90.55161   182.37676     4.35561
    11.10000    89.44845   177.62345     4.35557    90.55155   182.37655     4.35557
    11.20000    89.44851   177.62365     4.35553    90.55149   182.37635     4.35553
    11.30000    89.44857   177.62386     4.35548    90.55143   182.37614     4.35548
    11.40000    89.44863   177.62407     4.35544    90.55137   182.37593     4.35544
    11.50000    89.44869   177.62427     4.35539    90.55131   182.37573     4.35539
    11.60000    89.44875   177.62448     4.35535    90.55125   182.37552     4.35535
    11.70000    89.44881   177.62469     4.35531    90.55119   182.37531     4.35531
    11.80000    89.44887   177.62489     4.35526    90.55113   182.37511     4.35526
    11.90000    89.44893   177.62510     4.35522    90.55107   182.37490     4.35522
    12.00000    89.44899   177.62530     4.35517    90.55101   182.37470     4.35517
    12.10000    89.44905   177.62551     4.35513    90.55095   182.37449     4.35513
    12.20000    89.44911   177.62571     4.35509    90.55089   182.37429     4.35509
    12.30000    89.44917   177.62592     4.35504    90.55083   182.37408     4.35504
    12.40000    89.44923   177.62613     4.35500    90.55077   182.37387     4.35500
    12.50000    89.44928   177.62633     4.35495    90.55072   182.37367     4.35495
    12.60000    89.44934   177.62654     4.35491    90.55066   182.37346     4.35491
    12.70000    89.44940   177.62674     4.35486    90.55060   182.37326     4.35486
    12.80000    89.44946   177.62695     4.35482    90.55054   182.37305     4.35482
    12.90000    89.44952   177.62715     4.35478    90.55048   182.37285     4.35478
    13.00000    89.44958   177.62736     4.35473    90.55042   182.37264     4.35473
    13.10000    89.44964   177.62756     4.35469    90.55036   182.37244     4.35469
    13.20000    89.44970   177.62777     4.35464    90.55030   182.37223     4.35464
    13.30000    89.44976   177.62797     4.35460    90.55024   182.37203     4.35460
    13.40000    89.44982   177.62818     4.35456    90.55018   182.37182     4.35456
    13.50000    89.44988   177.62838     4.35451    90.55012   182.37162     4.35451
    13.60000    89.44994   177.62858     4.35447    90.55006   182.37142     4.35447
    13.70000    89.45000   177.62879     4.35442    90.55000   182.37121     4.35442
    13.80000    89.45006   177.62899     4.35438    90.54994   182.37101     4.35438
    13.90000    89.45012   177.62920     4.35433    90.54988   182.37080     4.35433
    14.00000    89.45018   177.62940     4.35429    90.54982   182.37060     4.35429
    14.10000    89.45023   177.62961     4.35425    90.54977   182.37039     4.35425
    14.20000    89.45029   177.62981     4.35420    90.54971   182.37019     4.35420
    14.30000    89.45035   177.63001     4.35416    90.54965   182.36999     4.35416
    14.40000    89.45041   177.63022     4.35411    90.54959   182.36978     4.35411
    14.50000    89.45047   177.63042     4.35407    90.54953   182.36958     4.35407
    14.60000    89.45053   177.63062     4.35402    90.54947   182.36938     4.35402
    14.70000    89.45059   177.63083     4.35398    90.54941   182.36917     4.35398
    14.80000    89.45065   177.63103     4.35394    90.54935   182.36897     4.35394
    14.90000    89.45071   177.63123     4.35389    90.54929   182.36877     4.35389
    15.00000    89.45077   177.63144     4.35385    90.54923   182.36856     4.35385
    15.10000    89.45082   177.63164     4.35380    90.54918   182.36836     4.35380
    15.20000    89.45088   177.63184     4.35376    90.54912   182.36816     4.35376
    15.30000    89.45094   177.63205     4.35371    90.54906   182.36795     4.35371
    15.40000    89.45100   177.63225     4.35367    90.54900   182.36775     4.35367
    15.50000    89.45106   177.63245     4.35363    90.54894   182.36755     4.35363
    15.60000    89.45112   177.63265     4.35358    90.54888   182.36735     4.35358
    15.70000    89.45118   177.63286     4.35354    90.54882   182.36714     4.35354
    15.80000    89.45124   177.63306     4.35349    90.54876   182.36694     4.35349
    15.90000    89.45129   177.63326     4.35345    90.54871   182.36674     4.35345
    16.00000    89.45135   177.63346     4.35340    90.54865   182.36654     4.35340
    16.10000    89.45141   177.63366     4.35336    90.54859   182.36634     4.35336
    16.20000    89.45147   177.63387     4.35331    90.54853   182.36613     4.35331
    16.30000    89.45153   177.63407     4.35327    90.54847   182.36593     4.35327
    16.40000    89.45159   177.63427     4.35323    90.54841   182.36573     4.35323
    16.50000    89.45165   177.63447     4.35318    90.54835   182.36553     4.35318
    16.60000    89.45171   177.63467     4.35314    90.54829   182.36533     4.35314
    16.70000    89.45176   177.63488     4.35309    90.54824   182.36512     4.35309
    16.80000    89.45182   177.63508     4.35305    90.54818   182.36492     4.35305
    16.90000    89.45188   177.63528     4.35300    90.54812   182.36472     4.35300
    17.00000    89.45194   177.63548     4.35296    90.54806   182.36452     4.35296
    17.10000    89.45200   177.63568     4.35292    90.54800   182.36432     4.35292
    17.20000    89.45206   177.63588     4.35287    90.54794   182.36412     4.35287
    17.30000    89.45211   177.63608     4.35283    90.54789   182.36392     4.35283
    17.40000    89.45217   177.63628     4.35278    90.54783   182.36372     4.35278
    17.50000    89.45223   177.63649     4.35274    90.54777   182.36351     4.35274
    17.60000    89.45229   177.63669     4.35269    90.54771   182.36331     4.35269
    17.70000    89.45235   177.63689     4.35265    90.54765   182.36311     4.35265
    17.80000    89.45241   177.63709     4.35260    90.54759   182.36291     4.35260
    17.90000    89.45246   177.63729     4.35256    90.54754   182.36271     4.35256
    18.00000    89.45252   177.63749     4.35252    90.54748   182.36251     4.35252
    18.10000    89.45258   177.63769     4.35247    90.54742   182.36231     4.35247
    18.20000    89.45264   177.63789     4.35243    90.54736   182.36211     4.35243
    18.30000    89.45270   177.63809     4.35238    90.54730   182.36191     4.35238
    18.40000    89.45275   177.63829     4.35234    90.54725   182.36171     4.35234
    18.50000    89.45281   177.63849     4.35229    90.54719   182.36151     4.35229
    18.60000    89.45287   177.63869     4.35225    90.54713   182.36131     4.35225
    18.70000    89.45293   177.63889     4.35220    90.54707   182.36111     4.35220
    18.80000    89.45299   177.63909     4.35216    90.54701   182.36091     4.35216
    18.90000    89.45305   177.63929     4.35211    90.54695   182.36071     4.35211
    19.00000    89.45310   177.63949     4.35207    90.54690   182.36051     4.35207
    19.10000    89.45316   177.63969     4.35203    90.54684   182.36031     4.35203
    19.20000    89.45322   177.63989     4.35198    90.54678   182.36011     4.35198
    19.30000    89.45328   177.64009     4.35194    90.54672   182.35991     4.35194
    19.40000    89.45333   177.64028     4.35189    90.54667   182.35972     4.35189
    19.50000    89.45339   177.64048     4.35185    90.54661   182.35952     4.35185
    19.60000    89.45345   177.64068     4.35180    90.54655   182.35932     4.35180
    19.70000    89.45351   177.64088     4.35176    90.54649   182.35912     4.35176
    19.80000    89.45357   177.64108     4.35171    90.54643   182.35892     4.35171
    19.90000    89.45362   177.64128     4.35167    90.54638   182.35872     4.35167
    20.00000    89.45368   177.64148     4.35162    90.54632   182.35852     4.35162
    20.10000    89.45374   177.64168     4.35158    90.54626   182.35832     4.35158
    20.20000    89.45380   177.64187     4.35154    90.54620   182.35813     4.35154
    20.30000    89.45385   177.64207     4.35149    90.54615   182.35793     4.35149
    20.40000    89.45391   177.64227     4.35145    90.54609   182.35773     4.35145
    20.50000    89.45397   177.64247     4.35140    90.54603   182.35753     4.35140
    20.60000    89.45403   177.64267     4.35136    90.54597   182.35733     4.35136
    20.70000    89.45408   177.64287     4.35131    90.54592   182.35713     4.35131
    20.80000    89.45414   177.64306     4.35127    90.54586   182.35694     4.35127
    20.90000    89.45420   177.64326     4.35122    90.54580   182.35674     4.35122
    21.00000    89.45426   177.64346     4.35118    90.54574   182.35654     4.35118
    21.10000    89.45431   177.64366     4.35113    90.54569   182.35634     4.35113
    21.20000    89.45437   177.64385     4.35109    90.54563   182.35615     4.35109
    21.30000    89.45443   177.64405     4.35104    90.54557   182.35595     4.35104
    21.40000    89.45449   177.64425     4.35100    90.54551   182.35575     4.35100
    21.50000    89.45454   177.64445     4.35095    90.54546   182.35555     4.35095
    21.60000    89.45460   177.64464     4.35091    90.54540   182.35536     4.35091
    21.70000    89.45466   177.64484     4.35087    90.54534   182.35516     4.35087
    21.80000    89.45472   177.64504     4.35082    90.54528   182.35496     4.35082
    21.90000    89.45477   177.64524     4.35078    90.54523   182.35476     4.35078
    22.00000    89.45483   177.64543     4.35073    90.54517   182.35457     4.35073
    22.10000    89.45489   177.64563     4.35069    90.54511   182.35437     4.35069
    22.20000    89.45495   177.64583     4.35064    90.54505   182.35417     4.35064
    22.30000    89.45500   177.64602     4.35060    90.54500   182.35398     4.35060
    22.40000    89.45506   177.64622     4.35055    90.54494   182.35378     4.35055
    22.50000    89.45512   177.64641     4.35051    90.54488   182.35359     4.35051
    22.60000    89.45517   177.64661     4.35046    90.54483   182.35339     4.35046
    22.70000    89.45523   177.64681     4.35042    90.54477   182.35319     4.35042
    22.80000    89.45529   177.64700     4.35037    90.54471   182.35300     4.35037
    22.90000    89.45535   177.64720     4.35033    90.54465   182.35280     4.35033
    23.00000    89.45540   177.64740     4.35028    90.54460   182.35260     4.35028
    23.10000    89.45546   177.64759     4.35024    90.54454   182.35241     4.35024
    23.20000    89.45552   177.64779     4.35019    90.54448   182.35221     4.35019
    23.30000    89.45557   177.64798     4.35015    90.54443   182.35202     4.35015
