 # applied field (T), theta (degree), phi (degree), abs for RE 3-4
     0.00000     0.00000     0.00000     4.69837     0.00000     0.00000     4.69837
     0.10000     0.41379    37.91578     4.69836     0.41379    52.08422     4.69836
     0.20000     0.87888    37.91454     4.69835     0.87888    52.08546     4.69835
     0.30000     1.29286    37.91329     4.69832     1.29286    52.08671     4.69832
     0.40000     1.70702    37.91146     4.69828     1.70702    52.08854     4.69828
     0.50000     2.17275    37.90863     4.69823     2.17275    52.09137     4.69823
     0.60000     2.58748    37.90570     4.69817     2.58748    52.09430     4.69817
     0.70000     3.05400    37.90167     4.69809     3.05400    52.09833     4.69809
     0.80000     3.46956    37.89763     4.69801     3.46956    52.10237     4.69801
     0.90000    90.00000    35.23336     4.69760    90.00000    54.76664     4.69760
     1.00000    90.00000    35.23455     4.69758    90.00000    54.76545     4.69758
     1.10000    90.00000    35.23575     4.69756    90.00000    54.76425     4.69756
     1.20000    90.00000    35.23695     4.69754    90.00000    54.76305     4.69754
     1.30000    90.00000    35.23815     4.69752    90.00000    54.76185     4.69752
     1.40000    90.00000    35.23934     4.69750    90.00000    54.76066     4.69750
     1.50000    90.00000    35.24054     4.69748    90.00000    54.75946     4.69748
     1.60000    90.00000    35.24173     4.69746    90.00000    54.75827     4.69746
     1.70000    90.00000    35.24293     4.69744    90.00000    54.75707     4.69744
     1.80000    90.00000    35.24413     4.69742    90.00000    54.75587     4.69742
     1.90000    90.00000    35.24532     4.69740    90.00000    54.75468     4.69740
     2.00000    90.00000    35.24651     4.69738    90.00000    54.75349     4.69738
     2.10000    90.00000    35.24771     4.69736    90.00000    54.75229     4.69736
     2.20000    90.00000    35.24890     4.69734    90.00000    54.75110     4.69734
     2.30000    90.00000    35.25010     4.69732    90.00000    54.74990     4.69732
     2.40000    90.00000    35.25129     4.69730    90.00000    54.74871     4.69730
     2.50000    90.00000    35.25248     4.69728    90.00000    54.74752     4.69728
     2.60000    90.00000    35.25367     4.69726    90.00000    54.74633     4.69726
     2.70000    90.00000    35.25487     4.69724    90.00000    54.74513     4.69724
     2.80000    90.00000    35.25606     4.69722    90.00000    54.74394     4.69722
     2.90000    90.00000    35.25725     4.69720    90.00000    54.74275     4.69720
     3.00000    90.00000    35.25844     4.69718    90.00000    54.74156     4.69718
     3.10000    90.00000    35.25963     4.69716    90.00000    54.74037     4.69716
     3.20000    90.00000    35.26082     4.69714    90.00000    54.73918     4.69714
     3.30000    90.00000    35.26201     4.69712    90.00000    54.73799     4.69712
     3.40000    90.00000    35.26320     4.69710    90.00000    54.73680     4.69710
     3.50000    90.00000    35.26439     4.69708    90.00000    54.73561     4.69708
     3.60000    90.00000    35.26558     4.69706    90.00000    54.73442     4.69706
     3.70000    90.00000    35.26676     4.69704    90.00000    54.73324     4.69704
     3.80000    90.00000    35.26795     4.69702    90.00000    54.73205     4.69702
     3.90000    90.00000    35.26914     4.69700    90.00000    54.73086     4.69700
     4.00000    90.00000    35.27033     4.69698    90.00000    54.72967     4.69698
     4.10000    90.00000    35.27151     4.69696    90.00000    54.72849     4.69696
     4.20000    90.00000    35.27270     4.69694    90.00000    54.72730     4.69694
     4.30000    90.00000    35.27388     4.69692    90.00000    54.72612     4.69692
     4.40000    90.00000    35.27507     4.69690    90.00000    54.72493     4.69690
     4.50000    90.00000    35.27626     4.69688    90.00000    54.72374     4.69688
     4.60000    90.00000    35.27744     4.69686    90.00000    54.72256     4.69686
     4.70000    90.00000    35.27862     4.69684    90.00000    54.72138     4.69684
     4.80000    90.00000    35.27981     4.69682    90.00000    54.72019     4.69682
     4.90000    90.00000    35.28099     4.69680    90.00000    54.71901     4.69680
     5.00000    90.00000    35.28218     4.69678    90.00000    54.71782     4.69678
     5.10000    90.00000    35.28336     4.69676    90.00000    54.71664     4.69676
     5.20000    90.00000    35.28454     4.69674    90.00000    54.71546     4.69674
     5.30000    90.00000    35.28572     4.69672    90.00000    54.71428     4.69672
     5.40000    90.00000    35.28691     4.69670    90.00000    54.71309     4.69670
     5.50000    90.00000    35.28809     4.69668    90.00000    54.71191     4.69668
     5.60000    90.00000    35.28927     4.69666    90.00000    54.71073     4.69666
     5.70000    90.00000    35.29045     4.69664    90.00000    54.70955     4.69664
     5.80000    90.00000    35.29163     4.69662    90.00000    54.70837     4.69662
     5.90000    90.00000    35.29281     4.69660    90.00000    54.70719     4.69660
     6.00000    90.00000    35.29399     4.69658    90.00000    54.70601     4.69658
     6.10000    90.00000    35.29517     4.69656    90.00000    54.70483     4.69656
     6.20000    90.00000    35.29635     4.69654    90.00000    54.70365     4.69654
     6.30000    90.00000    35.29753     4.69652    90.00000    54.70247     4.69652
     6.40000    90.00000    35.29871     4.69650    90.00000    54.70129     4.69650
     6.50000    90.00000    35.29988     4.69648    90.00000    54.70012     4.69648
     6.60000    90.00000    35.30106     4.69646    90.00000    54.69894     4.69646
     6.70000    90.00000    35.30224     4.69644    90.00000    54.69776     4.69644
     6.80000    90.00000    35.30342     4.69642    90.00000    54.69658     4.69642
     6.90000    90.00000    35.30459     4.69640    90.00000    54.69541     4.69640
     7.00000    90.00000    35.30577     4.69638    90.00000    54.69423     4.69638
     7.10000    90.00000    35.30694     4.69636    90.00000    54.69306     4.69636
     7.20000    90.00000    35.30812     4.69634    90.00000    54.69188     4.69634
     7.30000    90.00000    35.30929     4.69632    90.00000    54.69071     4.69632
     7.40000    90.00000    35.31047     4.69630    90.00000    54.68953     4.69630
     7.50000    90.00000    35.31164     4.69628    90.00000    54.68836     4.69628
     7.60000    90.00000    35.31282     4.69626    90.00000    54.68718     4.69626
     7.70000    90.00000    35.31399     4.69624    90.00000    54.68601     4.69624
     7.80000    90.00000    35.31516     4.69622    90.00000    54.68484     4.69622
     7.90000    90.00000    35.31634     4.69620    90.00000    54.68366     4.69620
     8.00000    90.00000    35.31751     4.69618    90.00000    54.68249     4.69618
     8.10000    90.00000    35.31868     4.69616    90.00000    54.68132     4.69616
     8.20000    90.00000    35.31985     4.69614    90.00000    54.68015     4.69614
     8.30000    90.00000    35.32103     4.69612    90.00000    54.67897     4.69612
     8.40000    90.00000    35.32220     4.69610    90.00000    54.67780     4.69610
     8.50000    90.00000    35.32337     4.69608    90.00000    54.67663     4.69608
     8.60000    90.00000    35.32454     4.69606    90.00000    54.67546     4.69606
     8.70000    90.00000    35.32571     4.69604    90.00000    54.67429     4.69604
     8.80000    90.00000    35.32688     4.69602    90.00000    54.67312     4.69602
     8.90000    90.00000    35.32805     4.69600    90.00000    54.67195     4.69600
     9.00000    90.00000    35.32922     4.69598    90.00000    54.67078     4.69598
     9.10000    90.00000    35.33038     4.69596    90.00000    54.66962     4.69596
     9.20000    90.00000    35.33155     4.69594    90.00000    54.66845     4.69594
     9.30000    90.00000    35.33272     4.69592    90.00000    54.66728     4.69592
     9.40000    90.00000    35.33389     4.69590    90.00000    54.66611     4.69590
     9.50000    90.00000    35.33506     4.69588    90.00000    54.66494     4.69588
     9.60000    90.00000    35.33622     4.69586    90.00000    54.66378     4.69586
     9.70000    90.00000    35.33739     4.69584    90.00000    54.66261     4.69584
     9.80000    90.00000    35.33855     4.69582    90.00000    54.66145     4.69582
     9.90000    90.00000    35.33972     4.69580    90.00000    54.66028     4.69580
    10.00000    90.00000    35.34089     4.69578    90.00000    54.65911     4.69578
    10.10000    90.00000    35.34205     4.69576    90.00000    54.65795     4.69576
    10.20000    90.00000    35.34322     4.69574    90.00000    54.65678     4.69574
    10.30000    90.00000    35.34438     4.69572    90.00000    54.65562     4.69572
    10.40000    90.00000    35.34554     4.69570    90.00000    54.65446     4.69570
    10.50000    90.00000    35.34671     4.69568    90.00000    54.65329     4.69568
    10.60000    90.00000    35.34787     4.69566    90.00000    54.65213     4.69566
    10.70000    90.00000    35.34903     4.69564    90.00000    54.65097     4.69564
    10.80000    90.00000    35.35020     4.69562    90.00000    54.64980     4.69562
    10.90000    90.00000    35.35136     4.69560    90.00000    54.64864     4.69560
    11.00000    90.00000    35.35252     4.69558    90.00000    54.64748     4.69558
    11.10000    90.00000    35.35368     4.69556    90.00000    54.64632     4.69556
    11.20000    90.00000    35.35484     4.69554    90.00000    54.64516     4.69554
    11.30000    90.00000    35.35600     4.69552    90.00000    54.64400     4.69552
    11.40000    90.00000    35.35716     4.69550    90.00000    54.64284     4.69550
    11.50000    90.00000    35.35832     4.69548    90.00000    54.64168     4.69548
    11.60000    90.00000    35.35948     4.69546    90.00000    54.64052     4.69546
    11.70000    90.00000    35.36064     4.69544    90.00000    54.63936     4.69544
    11.80000    90.00000    35.36180     4.69542    90.00000    54.63820     4.69542
    11.90000    90.00000    35.36296     4.69540    90.00000    54.63704     4.69540
    12.00000    90.00000    35.36412     4.69538    90.00000    54.63588     4.69538
    12.10000    90.00000    35.36528     4.69536    90.00000    54.63472     4.69536
    12.20000    90.00000    35.36643     4.69534    90.00000    54.63357     4.69534
    12.30000    90.00000    35.36759     4.69532    90.00000    54.63241     4.69532
    12.40000    90.00000    35.36875     4.69530    90.00000    54.63125     4.69530
    12.50000    90.00000    35.36990     4.69528    90.00000    54.63010     4.69528
    12.60000    90.00000    35.37106     4.69525    90.00000    54.62894     4.69525
    12.70000    90.00000    35.37222     4.69523    90.00000    54.62778     4.69523
    12.80000    90.00000    35.37337     4.69521    90.00000    54.62663     4.69521
    12.90000    90.00000    35.37453     4.69519    90.00000    54.62547     4.69519
    13.00000    90.00000    35.37568     4.69517    90.00000    54.62432     4.69517
    13.10000    90.00000    35.37684     4.69515    90.00000    54.62316     4.69515
    13.20000    90.00000    35.37799     4.69513    90.00000    54.62201     4.69513
    13.30000    90.00000    35.37914     4.69511    90.00000    54.62086     4.69511
    13.40000    90.00000    35.38030     4.69509    90.00000    54.61970     4.69509
    13.50000    90.00000    35.38145     4.69507    90.00000    54.61855     4.69507
    13.60000    90.00000    35.38260     4.69505    90.00000    54.61740     4.69505
    13.70000    90.00000    35.38375     4.69503    90.00000    54.61625     4.69503
    13.80000    90.00000    35.38491     4.69501    90.00000    54.61509     4.69501
    13.90000    90.00000    35.38606     4.69499    90.00000    54.61394     4.69499
    14.00000    90.00000    35.38721     4.69497    90.00000    54.61279     4.69497
    14.10000    90.00000    35.38836     4.69495    90.00000    54.61164     4.69495
    14.20000    90.00000    35.38951     4.69493    90.00000    54.61049     4.69493
    14.30000    90.00000    35.39066     4.69491    90.00000    54.60934     4.69491
    14.40000    90.00000    35.39181     4.69489    90.00000    54.60819     4.69489
    14.50000    90.00000    35.39296     4.69487    90.00000    54.60704     4.69487
    14.60000    90.00000    35.39411     4.69485    90.00000    54.60589     4.69485
    14.70000    90.00000    35.39526     4.69483    90.00000    54.60474     4.69483
    14.80000    90.00000    35.39641     4.69481    90.00000    54.60359     4.69481
    14.90000    90.00000    35.39755     4.69479    90.00000    54.60245     4.69479
    15.00000    90.00000    35.39870     4.69477    90.00000    54.60130     4.69477
    15.10000    90.00000    35.39985     4.69475    90.00000    54.60015     4.69475
    15.20000    90.00000    35.40100     4.69473    90.00000    54.59900     4.69473
    15.30000    90.00000    35.40214     4.69471    90.00000    54.59786     4.69471
    15.40000    90.00000    35.40329     4.69469    90.00000    54.59671     4.69469
    15.50000    90.00000    35.40443     4.69467    90.00000    54.59557     4.69467
    15.60000    90.00000    35.40558     4.69465    90.00000    54.59442     4.69465
    15.70000    90.00000    35.40673     4.69463    90.00000    54.59327     4.69463
    15.80000    90.00000    35.40787     4.69461    90.00000    54.59213     4.69461
    15.90000    90.00000    35.40902     4.69459    90.00000    54.59098     4.69459
    16.00000    90.00000    35.41016     4.69457    90.00000    54.58984     4.69457
    16.10000    90.00000    35.41130     4.69455    90.00000    54.58870     4.69455
    16.20000    90.00000    35.41245     4.69453    90.00000    54.58755     4.69453
    16.30000    90.00000    35.41359     4.69451    90.00000    54.58641     4.69451
    16.40000    90.00000    35.41473     4.69449    90.00000    54.58527     4.69449
    16.50000    90.00000    35.41587     4.69447    90.00000    54.58413     4.69447
    16.60000    90.00000    35.41702     4.69445    90.00000    54.58298     4.69445
    16.70000    90.00000    35.41816     4.69443    90.00000    54.58184     4.69443
    16.80000    90.00000    35.41930     4.69441    90.00000    54.58070     4.69441
    16.90000    90.00000    35.42044     4.69439    90.00000    54.57956     4.69439
    17.00000    90.00000    35.42158     4.69437    90.00000    54.57842     4.69437
    17.10000    90.00000    35.42272     4.69435    90.00000    54.57728     4.69435
    17.20000    90.00000    35.42386     4.69433    90.00000    54.57614     4.69433
    17.30000    90.00000    35.42500     4.69430    90.00000    54.57500     4.69430
    17.40000    90.00000    35.42614     4.69428    90.00000    54.57386     4.69428
    17.50000    90.00000    35.42728     4.69426    90.00000    54.57272     4.69426
    17.60000    90.00000    35.42842     4.69424    90.00000    54.57158     4.69424
    17.70000    90.00000    35.42956     4.69422    90.00000    54.57044     4.69422
    17.80000    90.00000    35.43069     4.69420    90.00000    54.56931     4.69420
    17.90000    90.00000    35.43183     4.69418    90.00000    54.56817     4.69418
    18.00000    90.00000    35.43297     4.69416    90.00000    54.56703     4.69416
    18.10000    90.00000    35.43411     4.69414    90.00000    54.56589     4.69414
    18.20000    90.00000    35.43524     4.69412    90.00000    54.56476     4.69412
    18.30000    90.00000    35.43638     4.69410    90.00000    54.56362     4.69410
    18.40000    90.00000    35.43751     4.69408    90.00000    54.56249     4.69408
    18.50000    90.00000    35.43865     4.69406    90.00000    54.56135     4.69406
    18.60000    90.00000    35.43979     4.69404    90.00000    54.56021     4.69404
    18.70000    90.00000    35.44092     4.69402    90.00000    54.55908     4.69402
    18.80000    90.00000    35.44205     4.69400    90.00000    54.55795     4.69400
    18.90000    90.00000    35.44319     4.69398    90.00000    54.55681     4.69398
    19.00000    90.00000    35.44432     4.69396    90.00000    54.55568     4.69396
    19.10000    90.00000    35.44546     4.69394    90.00000    54.55454     4.69394
    19.20000    90.00000    35.44659     4.69392    90.00000    54.55341     4.69392
    19.30000    90.00000    35.44772     4.69390    90.00000    54.55228     4.69390
    19.40000    90.00000    35.44885     4.69388    90.00000    54.55115     4.69388
    19.50000    90.00000    35.44999     4.69386    90.00000    54.55001     4.69386
    19.60000    90.00000    35.45112     4.69384    90.00000    54.54888     4.69384
    19.70000    90.00000    35.45225     4.69382    90.00000    54.54775     4.69382
    19.80000    90.00000    35.45338     4.69380    90.00000    54.54662     4.69380
    19.90000    90.00000    35.45451     4.69378    90.00000    54.54549     4.69378
    20.00000    90.00000    35.45564     4.69376    90.00000    54.54436     4.69376
    20.10000    90.00000    35.45677     4.69374    90.00000    54.54323     4.69374
    20.20000    90.00000    35.45790     4.69372    90.00000    54.54210     4.69372
    20.30000    90.00000    35.45903     4.69370    90.00000    54.54097     4.69370
    20.40000    90.00000    35.46016     4.69368    90.00000    54.53984     4.69368
    20.50000    90.00000    35.46129     4.69365    90.00000    54.53871     4.69365
    20.60000    90.00000    35.46242     4.69363    90.00000    54.53758     4.69363
    20.70000    90.00000    35.46354     4.69361    90.00000    54.53646     4.69361
    20.80000    90.00000    35.46467     4.69359    90.00000    54.53533     4.69359
    20.90000    90.00000    35.46580     4.69357    90.00000    54.53420     4.69357
    21.00000    90.00000    35.46692     4.69355    90.00000    54.53308     4.69355
    21.10000    90.00000    35.46805     4.69353    90.00000    54.53195     4.69353
    21.20000    90.00000    35.46918     4.69351    90.00000    54.53082     4.69351
    21.30000    90.00000    35.47030     4.69349    90.00000    54.52970     4.69349
    21.40000    90.00000    35.47143     4.69347    90.00000    54.52857     4.69347
    21.50000    90.00000    35.47255     4.69345    90.00000    54.52745     4.69345
    21.60000    90.00000    35.47368     4.69343    90.00000    54.52632     4.69343
    21.70000    90.00000    35.47480     4.69341    90.00000    54.52520     4.69341
    21.80000    90.00000    35.47593     4.69339    90.00000    54.52407     4.69339
    21.90000    90.00000    35.47705     4.69337    90.00000    54.52295     4.69337
    22.00000    90.00000    35.47817     4.69335    90.00000    54.52183     4.69335
    22.10000    90.00000    35.47930     4.69333    90.00000    54.52070     4.69333
    22.20000    90.00000    35.48042     4.69331    90.00000    54.51958     4.69331
    22.30000    90.00000    35.48154     4.69329    90.00000    54.51846     4.69329
    22.40000    90.00000    35.48266     4.69327    90.00000    54.51734     4.69327
    22.50000    90.00000    35.48379     4.69325    90.00000    54.51621     4.69325
    22.60000    90.00000    35.48491     4.69323    90.00000    54.51509     4.69323
    22.70000    90.00000    35.48603     4.69321    90.00000    54.51397     4.69321
    22.80000    90.00000    35.48715     4.69319    90.00000    54.51285     4.69319
    22.90000    90.00000    35.48827     4.69317    90.00000    54.51173     4.69317
    23.00000    90.00000    35.48939     4.69315    90.00000    54.51061     4.69315
    23.10000    90.00000    35.49051     4.69312    90.00000    54.50949     4.69312
    23.20000    90.00000    35.49163     4.69310    90.00000    54.50837     4.69310
    23.30000    90.00000    35.49275     4.69308    90.00000    54.50725     4.69308
