 # applied field (T), theta (degree), phi (degree), abs [muB/unitcell], abs [T]
       0.00000000       0.00000000       0.00000000      37.08628567       1.29144697
       0.10000000       0.56996475     360.00000000      37.08626469       1.29144624
       0.20000000       1.19685890     360.00000000      37.08619261       1.29144373
       0.30000000       1.76682984     360.00000000      37.08608335       1.29143993
       0.40000000       2.33680666     360.00000000      37.08593228       1.29143467
       0.50000000       2.90679126     360.00000000      37.08573951       1.29142795
       0.60000000       3.53371628     360.00000000      37.08547776       1.29141884
       0.70000000       4.10372334     360.00000000      37.08519762       1.29140908
       0.80000000       4.67374398     360.00000000      37.08487630       1.29139789
       0.90000000       5.24378006     360.00000000      37.08451401       1.29138528
       1.00000000       5.87077073     360.00000000      37.08406569       1.29136967
       1.10000000       6.44084527     360.00000000      37.08361798       1.29135408
       1.20000000       7.06788282     360.00000000      37.08307585       1.29133520
       1.30000000       7.63800383     360.00000000      37.08254410       1.29131668
       1.40000000       8.20814971     360.00000000      37.08197303       1.29129679
       1.50000000       8.83527237     360.00000000      37.08129570       1.29127321
       1.60000000       9.40547626     360.00000000      37.08064312       1.29125048
       1.70000000      10.03266712     360.00000000      37.07987663       1.29122379
       1.80000000      10.60293660     360.00000000      37.07914454       1.29119830
       1.90000000      11.23020392     360.00000000      37.07829124       1.29116858
       2.00000000      11.80054634     360.00000000      37.07748191       1.29114040
       2.10000000      12.42789810     360.00000000      37.07654442       1.29110776
       2.20000000      13.05529725     360.00000000      37.07556381       1.29107361
       2.30000000      13.62576447     360.00000000      37.07464150       1.29104149
       2.40000000      14.25325967     360.00000000      37.07358115       1.29100457
       2.50000000      14.88080818     360.00000000      37.07248017       1.29096623
       2.60000000      15.50841192     360.00000000      37.07133947       1.29092650
       2.70000000      16.13607277     360.00000000      37.07016000       1.29088543
       2.80000000      16.76379259     360.00000000      37.06894273       1.29084304
       2.90000000      17.39157313     360.00000000      37.06768869       1.29079937
       3.00000000      18.01941613     360.00000000      37.06639889       1.29075446
       3.10000000      18.64732325     360.00000000      37.06507441       1.29070834
       3.20000000      19.27529609     360.00000000      37.06371633       1.29066105
       3.30000000      19.90333621     360.00000000      37.06232576       1.29061262
       3.40000000      20.58848990     360.00000000      37.06076427       1.29055825
       3.50000000      21.21667561     360.00000000      37.05930921       1.29050758
       3.60000000      21.90199192     360.00000000      37.05767963       1.29045083
       3.70000000      22.53032915     360.00000000      37.05616525       1.29039810
       3.80000000      23.21581424     360.00000000      37.05447331       1.29033918
       3.90000000      23.90138974     360.00000000      37.05275103       1.29027920
       4.00000000      24.58705705     360.00000000      37.05100005       1.29021823
       4.10000000      25.27281750     360.00000000      37.04922202       1.29015631
       4.20000000      25.95867227     360.00000000      37.04741860       1.29009351
       4.30000000      26.64462247     360.00000000      37.04559149       1.29002989
       4.40000000      27.33066912     360.00000000      37.04374238       1.28996550
       4.50000000      28.07394456     360.00000000      37.04170551       1.28989457
       4.60000000      28.76019519     360.00000000      37.03981580       1.28982876
       4.70000000      29.50369400     360.00000000      37.03773849       1.28975643
       4.80000000      30.24731030     360.00000000      37.03564324       1.28968346
       4.90000000      30.99104469     360.00000000      37.03353224       1.28960995
       5.00000000      31.73489764     360.00000000      37.03140770       1.28953597
       5.10000000      32.47886949     360.00000000      37.02927181       1.28946159
       5.20000000      33.28015779     360.00000000      37.02694978       1.28938073
       5.30000000      34.02437736     360.00000000      37.02479705       1.28930577
       5.40000000      34.82593313     360.00000000      37.02246144       1.28922444
       5.50000000      35.68485562     360.00000000      37.01994398       1.28913677
       5.60000000      36.48669822     360.00000000      37.01760440       1.28905530
       5.70000000      37.28867819     360.00000000      37.01526704       1.28897391
       5.80000000      38.14805416     360.00000000      37.01275592       1.28888646
       5.90000000      39.00758649     360.00000000      37.01025295       1.28879930
       6.00000000      39.92455543     360.00000000      37.00758372       1.28870635
       6.10000000      40.84169950     360.00000000      37.00493040       1.28861396
       6.20000000      41.75901642     360.00000000      37.00229655       1.28852224
       6.30000000      42.67650364     360.00000000      36.99968559       1.28843132
       6.40000000      43.65148513     360.00000000      36.99692832       1.28833530
       6.50000000      44.62665306     360.00000000      36.99420407       1.28824044
       6.60000000      45.65935340     360.00000000      36.99134804       1.28814098
       6.70000000      46.69225445     360.00000000      36.98853697       1.28804309
       6.80000000      47.72535094     360.00000000      36.98577487       1.28794691
       6.90000000      48.87340618     360.00000000      36.98274471       1.28784139
       7.00000000      50.02169015     360.00000000      36.97978371       1.28773828
       7.10000000      51.17019453     360.00000000      36.97689641       1.28763774
       7.20000000      52.37633005     360.00000000      36.97393767       1.28753470
       7.30000000      53.69755222     360.00000000      36.97077918       1.28742472
       7.40000000      55.01903209     360.00000000      36.96773304       1.28731864
       7.50000000      56.39820981     360.00000000      36.96466917       1.28721195
       7.60000000      57.89256897     360.00000000      36.96147895       1.28710086
       7.70000000      59.44468061     360.00000000      36.95832468       1.28699102
       7.80000000      61.11204336     360.00000000      36.95511375       1.28687920
       7.90000000      62.89469542     360.00000000      36.95189141       1.28676699
       8.00000000      64.85017776     360.00000000      36.94860583       1.28665258
       8.10000000      66.97854321     360.00000000      36.94533371       1.28653864
       8.20000000      69.33736096     360.00000000      36.94207583       1.28642519
       8.30000000      72.09929957     360.00000000      36.93874048       1.28630904
       8.40000000      75.43710535     360.00000000      36.93539334       1.28619248
       8.50000000      79.86890537     360.00000000      36.93207091       1.28607679
       8.60000000      90.00000000     360.00000000      36.92903632       1.28597112
       8.70000000      90.00000000     360.00000000      36.92931436       1.28598080
       8.80000000      90.00000000     360.00000000      36.92959239       1.28599048
       8.90000000      90.00000000     360.00000000      36.92987039       1.28600016
       9.00000000      90.00000000     360.00000000      36.93014838       1.28600984
       9.10000000      90.00000000     360.00000000      36.93042634       1.28601952
       9.20000000      90.00000000     360.00000000      36.93070427       1.28602920
       9.30000000      90.00000000     360.00000000      36.93098219       1.28603888
       9.40000000      90.00000000     360.00000000      36.93126008       1.28604855
       9.50000000      90.00000000     360.00000000      36.93153796       1.28605823
       9.60000000      90.00000000     360.00000000      36.93181581       1.28606790
       9.70000000      90.00000000     360.00000000      36.93209364       1.28607758
       9.80000000      90.00000000     360.00000000      36.93237145       1.28608725
       9.90000000      90.00000000     360.00000000      36.93264923       1.28609693
      10.00000000      90.00000000     360.00000000      36.93292700       1.28610660
      10.10000000      90.00000000     360.00000000      36.93320474       1.28611627
      10.20000000      90.00000000     360.00000000      36.93348246       1.28612594
      10.30000000      90.00000000     360.00000000      36.93376016       1.28613561
      10.40000000      90.00000000     360.00000000      36.93403784       1.28614528
      10.50000000      90.00000000     360.00000000      36.93431550       1.28615495
      10.60000000      90.00000000     360.00000000      36.93459313       1.28616462
      10.70000000      90.00000000     360.00000000      36.93487074       1.28617429
      10.80000000      90.00000000     360.00000000      36.93514834       1.28618395
      10.90000000      90.00000000     360.00000000      36.93542590       1.28619362
      11.00000000      90.00000000     360.00000000      36.93570345       1.28620328
      11.10000000      90.00000000     360.00000000      36.93598098       1.28621295
      11.20000000      90.00000000     360.00000000      36.93625849       1.28622261
      11.30000000      90.00000000     360.00000000      36.93653597       1.28623227
      11.40000000      90.00000000     360.00000000      36.93681343       1.28624194
      11.50000000      90.00000000     360.00000000      36.93709087       1.28625160
      11.60000000      90.00000000     360.00000000      36.93736829       1.28626126
      11.70000000      90.00000000     360.00000000      36.93764569       1.28627092
      11.80000000      90.00000000     360.00000000      36.93792306       1.28628058
      11.90000000      90.00000000     360.00000000      36.93820042       1.28629023
      12.00000000      90.00000000     360.00000000      36.93847775       1.28629989
      12.10000000      90.00000000     360.00000000      36.93875506       1.28630955
      12.20000000      90.00000000     360.00000000      36.93903235       1.28631920
      12.30000000      90.00000000     360.00000000      36.93930962       1.28632886
      12.40000000      90.00000000     360.00000000      36.93958687       1.28633851
      12.50000000      90.00000000     360.00000000      36.93986409       1.28634817
      12.60000000      90.00000000     360.00000000      36.94014130       1.28635782
      12.70000000      90.00000000     360.00000000      36.94041848       1.28636747
      12.80000000      90.00000000     360.00000000      36.94069564       1.28637713
      12.90000000      90.00000000     360.00000000      36.94097278       1.28638678
      13.00000000      90.00000000     360.00000000      36.94124990       1.28639643
      13.10000000      90.00000000     360.00000000      36.94152700       1.28640608
      13.20000000      90.00000000     360.00000000      36.94180407       1.28641572
      13.30000000      90.00000000     360.00000000      36.94208112       1.28642537
      13.40000000      90.00000000     360.00000000      36.94235816       1.28643502
      13.50000000      90.00000000     360.00000000      36.94263517       1.28644466
      13.60000000      90.00000000     360.00000000      36.94291216       1.28645431
      13.70000000      90.00000000     360.00000000      36.94318913       1.28646396
      13.80000000      90.00000000     360.00000000      36.94346607       1.28647360
      13.90000000      90.00000000     360.00000000      36.94374300       1.28648324
      14.00000000      90.00000000     360.00000000      36.94401991       1.28649289
      14.10000000      90.00000000     360.00000000      36.94429679       1.28650253
      14.20000000      90.00000000     360.00000000      36.94457365       1.28651217
      14.30000000      90.00000000     360.00000000      36.94485049       1.28652181
      14.40000000      90.00000000     360.00000000      36.94512731       1.28653145
      14.50000000      90.00000000     360.00000000      36.94540411       1.28654109
      14.60000000      90.00000000     360.00000000      36.94568089       1.28655073
      14.70000000      90.00000000     360.00000000      36.94595764       1.28656036
      14.80000000      90.00000000     360.00000000      36.94623438       1.28657000
      14.90000000      90.00000000     360.00000000      36.94651109       1.28657964
      15.00000000      90.00000000     360.00000000      36.94678778       1.28658927
      15.10000000      90.00000000     360.00000000      36.94706445       1.28659890
      15.20000000      90.00000000     360.00000000      36.94734110       1.28660854
      15.30000000      90.00000000     360.00000000      36.94761773       1.28661817
      15.40000000      90.00000000     360.00000000      36.94789434       1.28662780
      15.50000000      90.00000000     360.00000000      36.94817092       1.28663744
      15.60000000      90.00000000     360.00000000      36.94844749       1.28664707
      15.70000000      90.00000000     360.00000000      36.94872403       1.28665670
      15.80000000      90.00000000     360.00000000      36.94900055       1.28666633
      15.90000000      90.00000000     360.00000000      36.94927705       1.28667595
      16.00000000      90.00000000     360.00000000      36.94955353       1.28668558
      16.10000000      90.00000000     360.00000000      36.94982999       1.28669521
      16.20000000      90.00000000     360.00000000      36.95010643       1.28670483
      16.30000000      90.00000000     360.00000000      36.95038285       1.28671446
      16.40000000      90.00000000     360.00000000      36.95065924       1.28672409
      16.50000000      90.00000000     360.00000000      36.95093562       1.28673371
      16.60000000      90.00000000     360.00000000      36.95121197       1.28674333
      16.70000000      90.00000000     360.00000000      36.95148830       1.28675296
      16.80000000      90.00000000     360.00000000      36.95176461       1.28676258
      16.90000000      90.00000000     360.00000000      36.95204090       1.28677220
      17.00000000      90.00000000     360.00000000      36.95231717       1.28678182
      17.10000000      90.00000000     360.00000000      36.95259342       1.28679144
      17.20000000      90.00000000     360.00000000      36.95286965       1.28680106
      17.30000000      90.00000000     360.00000000      36.95314585       1.28681068
      17.40000000      90.00000000     360.00000000      36.95342204       1.28682029
      17.50000000      90.00000000     360.00000000      36.95369820       1.28682991
      17.60000000      90.00000000     360.00000000      36.95397434       1.28683953
      17.70000000      90.00000000     360.00000000      36.95425047       1.28684914
      17.80000000      90.00000000     360.00000000      36.95452657       1.28685876
      17.90000000      90.00000000     360.00000000      36.95480265       1.28686837
      18.00000000      90.00000000     360.00000000      36.95507870       1.28687798
      18.10000000      90.00000000     360.00000000      36.95535474       1.28688760
      18.20000000      90.00000000     360.00000000      36.95563076       1.28689721
      18.30000000      90.00000000     360.00000000      36.95590676       1.28690682
      18.40000000      90.00000000     360.00000000      36.95618273       1.28691643
      18.50000000      90.00000000     360.00000000      36.95645868       1.28692604
      18.60000000      90.00000000     360.00000000      36.95673462       1.28693565
      18.70000000      90.00000000     360.00000000      36.95701053       1.28694525
      18.80000000      90.00000000     360.00000000      36.95728642       1.28695486
      18.90000000      90.00000000     360.00000000      36.95756229       1.28696447
      19.00000000      90.00000000     360.00000000      36.95783814       1.28697407
      19.10000000      90.00000000     360.00000000      36.95811397       1.28698368
      19.20000000      90.00000000     360.00000000      36.95838978       1.28699328
      19.30000000      90.00000000     360.00000000      36.95866557       1.28700289
      19.40000000      90.00000000     360.00000000      36.95894133       1.28701249
      19.50000000      90.00000000     360.00000000      36.95921708       1.28702209
      19.60000000      90.00000000     360.00000000      36.95949280       1.28703169
      19.70000000      90.00000000     360.00000000      36.95976850       1.28704130
      19.80000000      90.00000000     360.00000000      36.96004419       1.28705090
      19.90000000      90.00000000     360.00000000      36.96031985       1.28706049
      20.00000000      90.00000000     360.00000000      36.96059549       1.28707009
      20.10000000      90.00000000     360.00000000      36.96087111       1.28707969
      20.20000000      90.00000000     360.00000000      36.96114671       1.28708929
      20.30000000      90.00000000     360.00000000      36.96142229       1.28709888
      20.40000000      90.00000000     360.00000000      36.96169785       1.28710848
      20.50000000      90.00000000     360.00000000      36.96197339       1.28711808
      20.60000000      90.00000000     360.00000000      36.96224890       1.28712767
      20.70000000      90.00000000     360.00000000      36.96252440       1.28713726
      20.80000000      90.00000000     360.00000000      36.96279987       1.28714686
      20.90000000      90.00000000     360.00000000      36.96307533       1.28715645
      21.00000000      90.00000000     360.00000000      36.96335076       1.28716604
      21.10000000      90.00000000     360.00000000      36.96362617       1.28717563
      21.20000000      90.00000000     360.00000000      36.96390157       1.28718522
      21.30000000      90.00000000     360.00000000      36.96417694       1.28719481
      21.40000000      90.00000000     360.00000000      36.96445229       1.28720440
      21.50000000      90.00000000     360.00000000      36.96472762       1.28721399
      21.60000000      90.00000000     360.00000000      36.96500293       1.28722357
      21.70000000      90.00000000     360.00000000      36.96527822       1.28723316
      21.80000000      90.00000000     360.00000000      36.96555349       1.28724274
      21.90000000      90.00000000     360.00000000      36.96582874       1.28725233
      22.00000000      90.00000000     360.00000000      36.96610396       1.28726191
      22.10000000      90.00000000     360.00000000      36.96637917       1.28727150
      22.20000000      90.00000000     360.00000000      36.96665436       1.28728108
      22.30000000      90.00000000     360.00000000      36.96692952       1.28729066
      22.40000000      90.00000000     360.00000000      36.96720467       1.28730024
      22.50000000      90.00000000     360.00000000      36.96747979       1.28730982
      22.60000000      90.00000000     360.00000000      36.96775489       1.28731940
      22.70000000      90.00000000     360.00000000      36.96802998       1.28732898
      22.80000000      90.00000000     360.00000000      36.96830504       1.28733856
      22.90000000      90.00000000     360.00000000      36.96858008       1.28734814
      23.00000000      90.00000000     360.00000000      36.96885510       1.28735772
