 # applied field (T), theta (degree), phi (degree), abs for RE 3-4
     0.00000     0.19158   135.00000     3.46358     0.19158    45.00000     3.46358
     0.10000     1.16806    54.52996     3.46534     1.40960    45.00000     3.46347
     0.20000     2.31286    49.84242     3.46691     2.62839    45.00000     3.46325
     0.30000     3.46383    48.26229     3.46828     3.84813    45.00000     3.46293
     0.40000     4.61730    47.47005     3.46941     5.06899    45.00000     3.46251
     0.50000     5.77267    46.99391     3.47031     6.29112    45.00000     3.46200
     0.60000     6.92986    46.67589     3.47095     7.51468    45.00000     3.46141
     0.70000     8.14152    46.43934     3.47132     8.79537    45.00000     3.46070
     0.80000     9.30264    46.26996     3.47137    10.02224    45.00000     3.45995
     0.90000    10.51863    46.13206     3.47109    11.30663    45.00000     3.45909
     1.00000    11.73701    46.02189     3.47046    12.59307    45.00000     3.45818
     1.10000    13.01091    45.92802     3.46939    13.93758    45.00000     3.45716
     1.20000    14.23453    45.85294     3.46796    15.22844    45.00000     3.45615
     1.30000    15.56740    45.78377     3.46593    16.63383    45.00000     3.45500
     1.40000    16.85021    45.72671     3.46351    17.98564    45.00000     3.45388
     1.50000    18.18976    45.67488     3.46047    19.39628    45.00000     3.45268
     1.60000    19.58659    45.62747     3.45672    20.86605    45.00000     3.45143
     1.70000    20.98747    45.58537     3.45238    22.33865    45.00000     3.45019
     1.80000    22.44658    45.54617     3.44722    23.87068    45.00000     3.44891
     1.90000    23.96464    45.50949     3.44116    25.46236    45.00000     3.44761
     2.00000    25.54244    45.47501     3.43413    27.11383    45.00000     3.44631
     2.10000    27.18090    45.44245     3.42607    28.82520    45.00000     3.44503
     2.20000    28.88104    45.41160     3.41690    30.59648    45.00000     3.44378
     2.30000    30.69918    45.38141     3.40627    32.48480    45.00000     3.44255
     2.40000    32.58205    45.35274     3.39444    34.43298    45.00000     3.44140
     2.50000    34.58695    45.32476     3.38103    36.49806    45.00000     3.44032
     2.60000    36.77279    45.29687     3.36565    38.73716    45.00000     3.43931
     2.70000    39.08728    45.26999     3.34873    41.09253    45.00000     3.43845
     2.80000    41.70506    45.24252     3.32911    43.73570    45.00000     3.43769
     2.90000    44.57671    45.21562     3.30748    46.60823    45.00000     3.43711
     3.00000    47.88402    45.18835     3.28301    49.88066    45.00000     3.43669
     3.10000    51.75736    45.16079     3.25581    53.66499    45.00000     3.43645
     3.20000    56.57069    45.13197     3.22536    58.30043    45.00000     3.43630
     3.30000    63.07555    45.10013     3.19190    64.46537    45.00000     3.43588
     3.40000    74.19569    45.05648     3.15848    74.83184    45.00000     3.43304
     3.50000    90.00000    45.00000     3.16348    89.47894    45.00000     3.42248
     3.60000    90.00000    45.00000     3.16360    89.47893    45.00000     3.42259
     3.70000    90.00000    45.00000     3.16373    89.47892    45.00000     3.42271
     3.80000    90.00000    45.00000     3.16386    89.47891    45.00000     3.42282
     3.90000    90.00000    45.00000     3.16399    89.47890    45.00000     3.42293
     4.00000    90.00000    45.00000     3.16412    89.47889    45.00000     3.42305
     4.10000    90.00000    45.00000     3.16425    89.47889    45.00000     3.42316
     4.20000    90.00000    45.00000     3.16437    89.47888    45.00000     3.42327
     4.30000    90.00000    45.00000     3.16450    89.47887    45.00000     3.42339
     4.40000    90.00000    45.00000     3.16463    89.47886    45.00000     3.42350
     4.50000    90.00000    45.00000     3.16476    89.47885    45.00000     3.42361
     4.60000    90.00000    45.00000     3.16489    89.47884    45.00000     3.42373
     4.70000    90.00000    45.00000     3.16502    89.47883    45.00000     3.42384
     4.80000    90.00000    45.00000     3.16514    89.47882    45.00000     3.42395
     4.90000    90.00000    45.00000     3.16527    89.47881    45.00000     3.42407
     5.00000    90.00000    45.00000     3.16540    89.47880    45.00000     3.42418
     5.10000    90.00000    45.00000     3.16553    89.47879    45.00000     3.42429
     5.20000    90.00000    45.00000     3.16566    89.47878    45.00000     3.42441
     5.30000    90.00000    45.00000     3.16578    89.47877    45.00000     3.42452
     5.40000    90.00000    45.00000     3.16591    89.47876    45.00000     3.42463
     5.50000    90.00000    45.00000     3.16604    89.47875    45.00000     3.42475
     5.60000    90.00000    45.00000     3.16617    89.47874    45.00000     3.42486
     5.70000    90.00000    45.00000     3.16629    89.47873    45.00000     3.42497
     5.80000    90.00000    45.00000     3.16642    89.47872    45.00000     3.42508
     5.90000    90.00000    45.00000     3.16655    89.47871    45.00000     3.42520
     6.00000    90.00000    45.00000     3.16668    89.47870    45.00000     3.42531
     6.10000    90.00000    45.00000     3.16681    89.47869    45.00000     3.42542
     6.20000    90.00000    45.00000     3.16693    89.47868    45.00000     3.42554
     6.30000    90.00000    45.00000     3.16706    89.47867    45.00000     3.42565
     6.40000    90.00000    45.00000     3.16719    89.47866    45.00000     3.42576
     6.50000    90.00000    45.00000     3.16732    89.47865    45.00000     3.42587
     6.60000    90.00000    45.00000     3.16744    89.47864    45.00000     3.42599
     6.70000    90.00000    45.00000     3.16757    89.47863    45.00000     3.42610
     6.80000    90.00000    45.00000     3.16770    89.47862    45.00000     3.42621
     6.90000    90.00000    45.00000     3.16783    89.47862    45.00000     3.42632
     7.00000    90.00000    45.00000     3.16795    89.47861    45.00000     3.42644
     7.10000    90.00000    45.00000     3.16808    89.47860    45.00000     3.42655
     7.20000    90.00000    45.00000     3.16821    89.47859    45.00000     3.42666
     7.30000    90.00000    45.00000     3.16833    89.47858    45.00000     3.42678
     7.40000    90.00000    45.00000     3.16846    89.47857    45.00000     3.42689
     7.50000    90.00000    45.00000     3.16859    89.47856    45.00000     3.42700
     7.60000    90.00000    45.00000     3.16872    89.47855    45.00000     3.42711
     7.70000    90.00000    45.00000     3.16884    89.47854    45.00000     3.42722
     7.80000    90.00000    45.00000     3.16897    89.47853    45.00000     3.42734
     7.90000    90.00000    45.00000     3.16910    89.47852    45.00000     3.42745
     8.00000    90.00000    45.00000     3.16923    89.47851    45.00000     3.42756
     8.10000    90.00000    45.00000     3.16935    89.47850    45.00000     3.42767
     8.20000    90.00000    45.00000     3.16948    89.47849    45.00000     3.42779
     8.30000    90.00000    45.00000     3.16961    89.47848    45.00000     3.42790
     8.40000    90.00000    45.00000     3.16973    89.47847    45.00000     3.42801
     8.50000    90.00000    45.00000     3.16986    89.47846    45.00000     3.42812
     8.60000    90.00000    45.00000     3.16999    89.47845    45.00000     3.42823
     8.70000    90.00000    45.00000     3.17012    89.47844    45.00000     3.42835
     8.80000    90.00000    45.00000     3.17024    89.47844    45.00000     3.42846
     8.90000    90.00000    45.00000     3.17037    89.47843    45.00000     3.42857
     9.00000    90.00000    45.00000     3.17050    89.47842    45.00000     3.42868
     9.10000    90.00000    45.00000     3.17062    89.47841    45.00000     3.42879
     9.20000    90.00000    45.00000     3.17075    89.47840    45.00000     3.42891
     9.30000    90.00000    45.00000     3.17088    89.47839    45.00000     3.42902
     9.40000    90.00000    45.00000     3.17100    89.47838    45.00000     3.42913
     9.50000    90.00000    45.00000     3.17113    89.47837    45.00000     3.42924
     9.60000    90.00000    45.00000     3.17126    89.47836    45.00000     3.42935
     9.70000    90.00000    45.00000     3.17138    89.47835    45.00000     3.42947
     9.80000    90.00000    45.00000     3.17151    89.47834    45.00000     3.42958
     9.90000    90.00000    45.00000     3.17164    89.47833    45.00000     3.42969
    10.00000    90.00000    45.00000     3.17176    89.47832    45.00000     3.42980
    10.10000    90.00000    45.00000     3.17189    89.47831    45.00000     3.42991
    10.20000    90.00000    45.00000     3.17202    89.47830    45.00000     3.43002
    10.30000    90.00000    45.00000     3.17214    89.47830    45.00000     3.43014
    10.40000    90.00000    45.00000     3.17227    89.47829    45.00000     3.43025
    10.50000    90.00000    45.00000     3.17240    89.47828    45.00000     3.43036
    10.60000    90.00000    45.00000     3.17252    89.47827    45.00000     3.43047
    10.70000    90.00000    45.00000     3.17265    89.47826    45.00000     3.43058
    10.80000    90.00000    45.00000     3.17278    89.47825    45.00000     3.43069
    10.90000    90.00000    45.00000     3.17290    89.47824    45.00000     3.43080
    11.00000    90.00000    45.00000     3.17303    89.47823    45.00000     3.43092
    11.10000    90.00000    45.00000     3.17316    89.47822    45.00000     3.43103
    11.20000    90.00000    45.00000     3.17328    89.47821    45.00000     3.43114
    11.30000    90.00000    45.00000     3.17341    89.47820    45.00000     3.43125
    11.40000    90.00000    45.00000     3.17353    89.47819    45.00000     3.43136
    11.50000    90.00000    45.00000     3.17366    89.47818    45.00000     3.43147
    11.60000    90.00000    45.00000     3.17379    89.47818    45.00000     3.43158
    11.70000    90.00000    45.00000     3.17391    89.47817    45.00000     3.43169
    11.80000    90.00000    45.00000     3.17404    89.47816    45.00000     3.43180
    11.90000    90.00000    45.00000     3.17416    89.47815    45.00000     3.43192
    12.00000    90.00000    45.00000     3.17429    89.47814    45.00000     3.43203
    12.10000    90.00000    45.00000     3.17442    89.47813    45.00000     3.43214
    12.20000    90.00000    45.00000     3.17454    89.47812    45.00000     3.43225
    12.30000    90.00000    45.00000     3.17467    89.47811    45.00000     3.43236
    12.40000    90.00000    45.00000     3.17479    89.47810    45.00000     3.43247
    12.50000    90.00000    45.00000     3.17492    89.47809    45.00000     3.43258
    12.60000    90.00000    45.00000     3.17505    89.47808    45.00000     3.43269
    12.70000    90.00000    45.00000     3.17517    89.47807    45.00000     3.43280
    12.80000    90.00000    45.00000     3.17530    89.47807    45.00000     3.43291
    12.90000    90.00000    45.00000     3.17542    89.47806    45.00000     3.43302
    13.00000    90.00000    45.00000     3.17555    89.47805    45.00000     3.43314
    13.10000    90.00000    45.00000     3.17567    89.47804    45.00000     3.43325
    13.20000    90.00000    45.00000     3.17580    89.47803    45.00000     3.43336
    13.30000    90.00000    45.00000     3.17593    89.47802    45.00000     3.43347
    13.40000    90.00000    45.00000     3.17605    89.47801    45.00000     3.43358
    13.50000    90.00000    45.00000     3.17618    89.47800    45.00000     3.43369
    13.60000    90.00000    45.00000     3.17630    89.47799    45.00000     3.43380
    13.70000    90.00000    45.00000     3.17643    89.47798    45.00000     3.43391
    13.80000    90.00000    45.00000     3.17655    89.47797    45.00000     3.43402
    13.90000    90.00000    45.00000     3.17668    89.47797    45.00000     3.43413
    14.00000    90.00000    45.00000     3.17680    89.47796    45.00000     3.43424
    14.10000    90.00000    45.00000     3.17693    89.47795    45.00000     3.43435
    14.20000    90.00000    45.00000     3.17705    89.47794    45.00000     3.43446
    14.30000    90.00000    45.00000     3.17718    89.47793    45.00000     3.43457
    14.40000    90.00000    45.00000     3.17731    89.47792    45.00000     3.43468
    14.50000    90.00000    45.00000     3.17743    89.47791    45.00000     3.43479
    14.60000    90.00000    45.00000     3.17756    89.47790    45.00000     3.43490
    14.70000    90.00000    45.00000     3.17768    89.47789    45.00000     3.43501
    14.80000    90.00000    45.00000     3.17781    89.47788    45.00000     3.43512
    14.90000    90.00000    45.00000     3.17793    89.47788    45.00000     3.43523
    15.00000    90.00000    45.00000     3.17806    89.47787    45.00000     3.43534
    15.10000    90.00000    45.00000     3.17818    89.47786    45.00000     3.43545
    15.20000    90.00000    45.00000     3.17831    89.47785    45.00000     3.43556
    15.30000    90.00000    45.00000     3.17843    89.47784    45.00000     3.43567
    15.40000    90.00000    45.00000     3.17856    89.47783    45.00000     3.43578
    15.50000    90.00000    45.00000     3.17868    89.47782    45.00000     3.43589
    15.60000    90.00000    45.00000     3.17881    89.47781    45.00000     3.43600
    15.70000    90.00000    45.00000     3.17893    89.47780    45.00000     3.43611
    15.80000    90.00000    45.00000     3.17906    89.47780    45.00000     3.43622
    15.90000    90.00000    45.00000     3.17918    89.47779    45.00000     3.43633
    16.00000    90.00000    45.00000     3.17931    89.47778    45.00000     3.43644
    16.10000    90.00000    45.00000     3.17943    89.47777    45.00000     3.43655
    16.20000    90.00000    45.00000     3.17956    89.47776    45.00000     3.43666
    16.30000    90.00000    45.00000     3.17968    89.47775    45.00000     3.43677
    16.40000    90.00000    45.00000     3.17981    89.47774    45.00000     3.43688
    16.50000    90.00000    45.00000     3.17993    89.47773    45.00000     3.43699
    16.60000    90.00000    45.00000     3.18005    89.47772    45.00000     3.43710
    16.70000    90.00000    45.00000     3.18018    89.47772    45.00000     3.43721
    16.80000    90.00000    45.00000     3.18030    89.47771    45.00000     3.43732
    16.90000    90.00000    45.00000     3.18043    89.47770    45.00000     3.43743
    17.00000    90.00000    45.00000     3.18055    89.47769    45.00000     3.43754
    17.10000    90.00000    45.00000     3.18068    89.47768    45.00000     3.43765
    17.20000    90.00000    45.00000     3.18080    89.47767    45.00000     3.43776
    17.30000    90.00000    45.00000     3.18093    89.47766    45.00000     3.43787
    17.40000    90.00000    45.00000     3.18105    89.47765    45.00000     3.43798
    17.50000    90.00000    45.00000     3.18118    89.47765    45.00000     3.43809
    17.60000    90.00000    45.00000     3.18130    89.47764    45.00000     3.43819
    17.70000    90.00000    45.00000     3.18142    89.47763    45.00000     3.43830
    17.80000    90.00000    45.00000     3.18155    89.47762    45.00000     3.43841
    17.90000    90.00000    45.00000     3.18167    89.47761    45.00000     3.43852
    18.00000    90.00000    45.00000     3.18180    89.47760    45.00000     3.43863
    18.10000    90.00000    45.00000     3.18192    89.47759    45.00000     3.43874
    18.20000    90.00000    45.00000     3.18205    89.47758    45.00000     3.43885
    18.30000    90.00000    45.00000     3.18217    89.47758    45.00000     3.43896
    18.40000    90.00000    45.00000     3.18229    89.47757    45.00000     3.43907
    18.50000    90.00000    45.00000     3.18242    89.47756    45.00000     3.43918
    18.60000    90.00000    45.00000     3.18254    89.47755    45.00000     3.43929
    18.70000    90.00000    45.00000     3.18267    89.47754    45.00000     3.43939
    18.80000    90.00000    45.00000     3.18279    89.47753    45.00000     3.43950
    18.90000    90.00000    45.00000     3.18291    89.47752    45.00000     3.43961
    19.00000    90.00000    45.00000     3.18304    89.47751    45.00000     3.43972
    19.10000    90.00000    45.00000     3.18316    89.47751    45.00000     3.43983
    19.20000    90.00000    45.00000     3.18329    89.47750    45.00000     3.43994
    19.30000    90.00000    45.00000     3.18341    89.47749    45.00000     3.44005
    19.40000    90.00000    45.00000     3.18353    89.47748    45.00000     3.44016
    19.50000    90.00000    45.00000     3.18366    89.47747    45.00000     3.44027
    19.60000    90.00000    45.00000     3.18378    89.47746    45.00000     3.44037
    19.70000    90.00000    45.00000     3.18390    89.47745    45.00000     3.44048
    19.80000    90.00000    45.00000     3.18403    89.47745    45.00000     3.44059
    19.90000    90.00000    45.00000     3.18415    89.47744    45.00000     3.44070
    20.00000    90.00000    45.00000     3.18427    89.47743    45.00000     3.44081
    20.10000    90.00000    45.00000     3.18440    89.47742    45.00000     3.44092
    20.20000    90.00000    45.00000     3.18452    89.47741    45.00000     3.44103
    20.30000    90.00000    45.00000     3.18465    89.47740    45.00000     3.44113
    20.40000    90.00000    45.00000     3.18477    89.47739    45.00000     3.44124
    20.50000    90.00000    45.00000     3.18489    89.47738    45.00000     3.44135
    20.60000    90.00000    45.00000     3.18502    89.47738    45.00000     3.44146
    20.70000    90.00000    45.00000     3.18514    89.47737    45.00000     3.44157
    20.80000    90.00000    45.00000     3.18526    89.47736    45.00000     3.44168
    20.90000    90.00000    45.00000     3.18539    89.47735    45.00000     3.44178
    21.00000    90.00000    45.00000     3.18551    89.47734    45.00000     3.44189
    21.10000    90.00000    45.00000     3.18563    89.47733    45.00000     3.44200
    21.20000    90.00000    45.00000     3.18576    89.47733    45.00000     3.44211
    21.30000    90.00000    45.00000     3.18588    89.47732    45.00000     3.44222
    21.40000    90.00000    45.00000     3.18600    89.47731    45.00000     3.44232
    21.50000    90.00000    45.00000     3.18612    89.47730    45.00000     3.44243
    21.60000    90.00000    45.00000     3.18625    89.47729    45.00000     3.44254
    21.70000    90.00000    45.00000     3.18637    89.47728    45.00000     3.44265
    21.80000    90.00000    45.00000     3.18649    89.47727    45.00000     3.44276
    21.90000    90.00000    45.00000     3.18662    89.47727    45.00000     3.44286
    22.00000    90.00000    45.00000     3.18674    89.47726    45.00000     3.44297
    22.10000    90.00000    45.00000     3.18686    89.47725    45.00000     3.44308
    22.20000    90.00000    45.00000     3.18699    89.47724    45.00000     3.44319
    22.30000    90.00000    45.00000     3.18711    89.47723    45.00000     3.44330
    22.40000    90.00000    45.00000     3.18723    89.47722    45.00000     3.44340
    22.50000    90.00000    45.00000     3.18735    89.47721    45.00000     3.44351
    22.60000    90.00000    45.00000     3.18748    89.47721    45.00000     3.44362
    22.70000    90.00000    45.00000     3.18760    89.47720    45.00000     3.44373
    22.80000    90.00000    45.00000     3.18772    89.47719    45.00000     3.44384
    22.90000    90.00000    45.00000     3.18785    89.47718    45.00000     3.44394
    23.00000    90.00000    45.00000     3.18797    89.47717    45.00000     3.44405
    23.10000    90.00000    45.00000     3.18809    89.47716    45.00000     3.44416
    23.20000    90.00000    45.00000     3.18821    89.47716    45.00000     3.44427
    23.30000    90.00000    45.00000     3.18834    89.47715    45.00000     3.44437
