 # applied field (T), theta (degree), phi (degree), abs for RE 3-4
     0.00000   178.53697   315.00000     3.98232   178.53697   225.00000     3.98232
     0.10000   178.91823   289.39594     3.97925   177.99352   211.53511     3.98292
     0.20000   178.95865   255.28696     3.97636   177.43588   204.49492     3.98343
     0.30000   178.63227   226.54355     3.97317   176.80467   199.71377     3.98391
     0.40000   178.10957   211.16604     3.96992   176.15898   196.52485     3.98433
     0.50000   177.55833   203.27555     3.96686   175.55567   194.40937     3.98466
     0.60000   176.92819   198.01677     3.96349   174.89718   192.68414     3.98497
     0.70000   176.28029   194.56177     3.96005   174.23531   191.35379     3.98521
     0.80000   175.67298   192.29432     3.95682   173.62229   190.37099     3.98538
     0.90000   175.00847   190.46025     3.95326   172.95649   189.49904     3.98550
     1.00000   174.33907   189.05518     3.94964   172.28935   188.77732     3.98557
     1.10000   173.66594   187.94511     3.94595   171.62112   188.17008     3.98557
     1.20000   172.98977   187.04621     3.94219   170.95195   187.65207     3.98552
     1.30000   172.31099   186.30348     3.93837   170.28196   187.20492     3.98540
     1.40000   171.62987   185.67938     3.93449   169.61120   186.81495     3.98523
     1.50000   170.89393   185.10984     3.93024   168.88800   186.44707     3.98499
     1.60000   170.20843   184.65595     3.92623   168.21572   186.14544     3.98470
     1.70000   169.52094   184.25995     3.92215   167.54270   185.87591     3.98435
     1.80000   168.77835   183.88621     3.91770   166.81706   185.61589     3.98392
     1.90000   168.03351   183.55734     3.91319   166.09053   185.38251     3.98343
     2.00000   167.33984   183.28528     3.90893   165.41509   185.18620     3.98292
     2.10000   166.59059   183.02247     3.90429   164.68674   184.99368     3.98231
     2.20000   165.83902   182.78616     3.89960   163.95738   184.81819     3.98165
     2.30000   165.03113   182.55796     3.89450   163.17476   184.64653     3.98087
     2.40000   164.27461   182.36486     3.88969   162.44319   184.49971     3.98009
     2.50000   163.46133   182.17634     3.88449   161.65808   184.35491     3.97919
     2.60000   162.69967   182.01523     3.87959   160.92411   184.23012     3.97830
     2.70000   161.82605   181.84639     3.87394   160.08373   184.09827     3.97723
     2.80000   161.00393   181.70099     3.86861   159.29438   183.98394     3.97616
     2.90000   160.17874   181.56653     3.86325   158.50351   183.87759     3.97504
     3.00000   159.29508   181.43374     3.85750   157.65817   183.77198     3.97379
     3.10000   158.40779   181.31063     3.85174   156.81099   183.67363     3.97248
     3.20000   157.46098   181.18920     3.84562   155.90877   183.57622     3.97104
     3.30000   156.56598   181.08271     3.83985   155.05762   183.49055     3.96963
     3.40000   155.55453   180.97096     3.83339   154.09767   183.40039     3.96799
     3.50000   154.59475   180.87236     3.82732   153.18869   183.32071     3.96639
     3.60000   153.57367   180.77452     3.82094   152.22366   183.24154     3.96465
     3.70000   152.49042   180.67779     3.81429   151.20210   183.16320     3.96276
     3.80000   151.40151   180.58704     3.80773   150.17750   183.08970     3.96082
     3.90000   150.24917   180.49729     3.80096   149.09563   183.01703     3.95873
     4.00000   149.03246   180.40875     3.79403   147.95595   182.94542     3.95649
     4.10000   147.80883   180.32542     3.78731   146.81242   182.87813     3.95422
     4.20000   146.51960   180.24313     3.78052   145.61029   182.81181     3.95180
     4.30000   145.16385   180.16200     3.77375   144.34897   182.74658     3.94923
     4.40000   143.68126   180.07893     3.76680   142.97269   182.67995     3.94641
     4.50000   142.12976   179.99756     3.76008   141.53555   182.61488     3.94346
     4.60000   140.50868   179.91793     3.75371   140.03691   182.55139     3.94038
     4.70000   138.69632   179.83465     3.74741   138.36441   182.48518     3.93696
     4.80000   136.75115   179.75122     3.74165   136.57203   182.41899     3.93331
     4.90000   134.61086   179.66567     3.73657   134.60193   182.35121     3.92935
     5.00000   132.21232   179.57661     3.73246   132.39512   182.28064     3.92499
     5.10000   129.43011   179.48115     3.72979   129.83423   182.20476     3.92006
     5.20000   126.20046   179.37944     3.72945   126.85648   182.12335     3.91450
     5.30000   122.14972   179.26364     3.73298   123.10817   182.02930     3.90782
     5.40000   116.53327   179.12090     3.74430   117.87419   181.91004     3.89910
     5.50000   106.21097   178.89915     3.77996   108.10154   181.71214     3.88458
     5.60000    88.87628   178.59876     3.86409    91.12372   181.40124     3.86409
     5.70000    88.87628   178.59875     3.86409    91.12372   181.40125     3.86409
     5.80000    88.87628   178.59874     3.86409    91.12372   181.40126     3.86409
     5.90000    88.87627   178.59873     3.86409    91.12373   181.40127     3.86409
     6.00000    88.87627   178.59872     3.86409    91.12373   181.40128     3.86409
     6.10000    88.87627   178.59871     3.86409    91.12373   181.40129     3.86409
     6.20000    88.87627   178.59869     3.86409    91.12373   181.40131     3.86409
     6.30000    88.87627   178.59868     3.86409    91.12373   181.40132     3.86409
     6.40000    88.87627   178.59867     3.86409    91.12373   181.40133     3.86409
     6.50000    88.87627   178.59866     3.86409    91.12373   181.40134     3.86409
     6.60000    88.87626   178.59865     3.86409    91.12374   181.40135     3.86409
     6.70000    88.87626   178.59864     3.86409    91.12374   181.40136     3.86409
     6.80000    88.87626   178.59862     3.86409    91.12374   181.40138     3.86409
     6.90000    88.87626   178.59861     3.86409    91.12374   181.40139     3.86409
     7.00000    88.87626   178.59860     3.86409    91.12374   181.40140     3.86409
     7.10000    88.87626   178.59859     3.86409    91.12374   181.40141     3.86409
     7.20000    88.87625   178.59858     3.86409    91.12375   181.40142     3.86409
     7.30000    88.87625   178.59857     3.86409    91.12375   181.40143     3.86409
     7.40000    88.87625   178.59855     3.86410    91.12375   181.40145     3.86410
     7.50000    88.87625   178.59854     3.86410    91.12375   181.40146     3.86410
     7.60000    88.87625   178.59853     3.86410    91.12375   181.40147     3.86410
     7.70000    88.87625   178.59852     3.86410    91.12375   181.40148     3.86410
     7.80000    88.87624   178.59851     3.86410    91.12376   181.40149     3.86410
     7.90000    88.87624   178.59850     3.86410    91.12376   181.40150     3.86410
     8.00000    88.87624   178.59849     3.86410    91.12376   181.40151     3.86410
     8.10000    88.87624   178.59847     3.86410    91.12376   181.40153     3.86410
     8.20000    88.87624   178.59846     3.86410    91.12376   181.40154     3.86410
     8.30000    88.87624   178.59845     3.86410    91.12376   181.40155     3.86410
     8.40000    88.87623   178.59844     3.86410    91.12377   181.40156     3.86410
     8.50000    88.87623   178.59843     3.86410    91.12377   181.40157     3.86410
     8.60000    88.87623   178.59842     3.86410    91.12377   181.40158     3.86410
     8.70000    88.87623   178.59840     3.86410    91.12377   181.40160     3.86410
     8.80000    88.87623   178.59839     3.86410    91.12377   181.40161     3.86410
     8.90000    88.87623   178.59838     3.86410    91.12377   181.40162     3.86410
     9.00000    88.87622   178.59837     3.86410    91.12378   181.40163     3.86410
     9.10000    88.87622   178.59836     3.86410    91.12378   181.40164     3.86410
     9.20000    88.87622   178.59834     3.86410    91.12378   181.40166     3.86410
     9.30000    88.87622   178.59833     3.86410    91.12378   181.40167     3.86410
     9.40000    88.87622   178.59832     3.86410    91.12378   181.40168     3.86410
     9.50000    88.87621   178.59831     3.86410    91.12379   181.40169     3.86410
     9.60000    88.87621   178.59830     3.86410    91.12379   181.40170     3.86410
     9.70000    88.87621   178.59829     3.86410    91.12379   181.40171     3.86410
     9.80000    88.87621   178.59827     3.86410    91.12379   181.40173     3.86410
     9.90000    88.87621   178.59826     3.86410    91.12379   181.40174     3.86410
    10.00000    88.87621   178.59825     3.86410    91.12379   181.40175     3.86410
    10.10000    88.87620   178.59824     3.86410    91.12380   181.40176     3.86410
    10.20000    88.87620   178.59823     3.86410    91.12380   181.40177     3.86410
    10.30000    88.87620   178.59822     3.86410    91.12380   181.40178     3.86410
    10.40000    88.87620   178.59820     3.86410    91.12380   181.40180     3.86410
    10.50000    88.87620   178.59819     3.86410    91.12380   181.40181     3.86410
    10.60000    88.87619   178.59818     3.86410    91.12381   181.40182     3.86410
    10.70000    88.87619   178.59817     3.86410    91.12381   181.40183     3.86410
    10.80000    88.87619   178.59816     3.86410    91.12381   181.40184     3.86410
    10.90000    88.87619   178.59814     3.86410    91.12381   181.40186     3.86410
    11.00000    88.87619   178.59813     3.86410    91.12381   181.40187     3.86410
    11.10000    88.87618   178.59812     3.86410    91.12382   181.40188     3.86410
    11.20000    88.87618   178.59811     3.86410    91.12382   181.40189     3.86410
    11.30000    88.87618   178.59810     3.86410    91.12382   181.40190     3.86410
    11.40000    88.87618   178.59808     3.86410    91.12382   181.40192     3.86410
    11.50000    88.87618   178.59807     3.86409    91.12382   181.40193     3.86409
    11.60000    88.87617   178.59806     3.86409    91.12383   181.40194     3.86409
    11.70000    88.87617   178.59805     3.86409    91.12383   181.40195     3.86409
    11.80000    88.87617   178.59804     3.86409    91.12383   181.40196     3.86409
    11.90000    88.87617   178.59803     3.86409    91.12383   181.40197     3.86409
    12.00000    88.87617   178.59801     3.86409    91.12383   181.40199     3.86409
    12.10000    88.87616   178.59800     3.86409    91.12384   181.40200     3.86409
    12.20000    88.87616   178.59799     3.86409    91.12384   181.40201     3.86409
    12.30000    88.87616   178.59798     3.86409    91.12384   181.40202     3.86409
    12.40000    88.87616   178.59797     3.86409    91.12384   181.40203     3.86409
    12.50000    88.87616   178.59795     3.86409    91.12384   181.40205     3.86409
    12.60000    88.87615   178.59794     3.86409    91.12385   181.40206     3.86409
    12.70000    88.87615   178.59793     3.86409    91.12385   181.40207     3.86409
    12.80000    88.87615   178.59792     3.86409    91.12385   181.40208     3.86409
    12.90000    88.87615   178.59791     3.86409    91.12385   181.40209     3.86409
    13.00000    88.87615   178.59789     3.86409    91.12385   181.40211     3.86409
    13.10000    88.87614   178.59788     3.86409    91.12386   181.40212     3.86409
    13.20000    88.87614   178.59787     3.86409    91.12386   181.40213     3.86409
    13.30000    88.87614   178.59786     3.86408    91.12386   181.40214     3.86408
    13.40000    88.87614   178.59785     3.86408    91.12386   181.40215     3.86408
    13.50000    88.87614   178.59783     3.86408    91.12386   181.40217     3.86408
    13.60000    88.87613   178.59782     3.86408    91.12387   181.40218     3.86408
    13.70000    88.87613   178.59781     3.86408    91.12387   181.40219     3.86408
    13.80000    88.87613   178.59780     3.86408    91.12387   181.40220     3.86408
    13.90000    88.87613   178.59779     3.86408    91.12387   181.40221     3.86408
    14.00000    88.87613   178.59777     3.86408    91.12387   181.40223     3.86408
    14.10000    88.87612   178.59776     3.86408    91.12388   181.40224     3.86408
    14.20000    88.87612   178.59775     3.86408    91.12388   181.40225     3.86408
    14.30000    88.87612   178.59774     3.86408    91.12388   181.40226     3.86408
    14.40000    88.87612   178.59772     3.86408    91.12388   181.40228     3.86408
    14.50000    88.87611   178.59771     3.86407    91.12389   181.40229     3.86407
    14.60000    88.87611   178.59770     3.86407    91.12389   181.40230     3.86407
    14.70000    88.87611   178.59769     3.86407    91.12389   181.40231     3.86407
    14.80000    88.87611   178.59768     3.86407    91.12389   181.40232     3.86407
    14.90000    88.87611   178.59766     3.86407    91.12389   181.40234     3.86407
    15.00000    88.87610   178.59765     3.86407    91.12390   181.40235     3.86407
    15.10000    88.87610   178.59764     3.86407    91.12390   181.40236     3.86407
    15.20000    88.87610   178.59763     3.86407    91.12390   181.40237     3.86407
    15.30000    88.87610   178.59762     3.86407    91.12390   181.40238     3.86407
    15.40000    88.87609   178.59760     3.86407    91.12391   181.40240     3.86407
    15.50000    88.87609   178.59759     3.86406    91.12391   181.40241     3.86406
    15.60000    88.87609   178.59758     3.86406    91.12391   181.40242     3.86406
    15.70000    88.87609   178.59757     3.86406    91.12391   181.40243     3.86406
    15.80000    88.87609   178.59755     3.86406    91.12391   181.40245     3.86406
    15.90000    88.87608   178.59754     3.86406    91.12392   181.40246     3.86406
    16.00000    88.87608   178.59753     3.86406    91.12392   181.40247     3.86406
    16.10000    88.87608   178.59752     3.86406    91.12392   181.40248     3.86406
    16.20000    88.87608   178.59751     3.86406    91.12392   181.40249     3.86406
    16.30000    88.87607   178.59749     3.86405    91.12393   181.40251     3.86405
    16.40000    88.87607   178.59748     3.86405    91.12393   181.40252     3.86405
    16.50000    88.87607   178.59747     3.86405    91.12393   181.40253     3.86405
    16.60000    88.87607   178.59746     3.86405    91.12393   181.40254     3.86405
    16.70000    88.87606   178.59744     3.86405    91.12394   181.40256     3.86405
    16.80000    88.87606   178.59743     3.86405    91.12394   181.40257     3.86405
    16.90000    88.87606   178.59742     3.86405    91.12394   181.40258     3.86405
    17.00000    88.87606   178.59741     3.86404    91.12394   181.40259     3.86404
    17.10000    88.87606   178.59739     3.86404    91.12394   181.40261     3.86404
    17.20000    88.87605   178.59738     3.86404    91.12395   181.40262     3.86404
    17.30000    88.87605   178.59737     3.86404    91.12395   181.40263     3.86404
    17.40000    88.87605   178.59736     3.86404    91.12395   181.40264     3.86404
    17.50000    88.87605   178.59735     3.86404    91.12395   181.40265     3.86404
    17.60000    88.87604   178.59733     3.86404    91.12396   181.40267     3.86404
    17.70000    88.87604   178.59732     3.86403    91.12396   181.40268     3.86403
    17.80000    88.87604   178.59731     3.86403    91.12396   181.40269     3.86403
    17.90000    88.87604   178.59730     3.86403    91.12396   181.40270     3.86403
    18.00000    88.87603   178.59728     3.86403    91.12397   181.40272     3.86403
    18.10000    88.87603   178.59727     3.86403    91.12397   181.40273     3.86403
    18.20000    88.87603   178.59726     3.86403    91.12397   181.40274     3.86403
    18.30000    88.87603   178.59725     3.86402    91.12397   181.40275     3.86402
    18.40000    88.87602   178.59723     3.86402    91.12398   181.40277     3.86402
    18.50000    88.87602   178.59722     3.86402    91.12398   181.40278     3.86402
    18.60000    88.87602   178.59721     3.86402    91.12398   181.40279     3.86402
    18.70000    88.87602   178.59720     3.86402    91.12398   181.40280     3.86402
    18.80000    88.87601   178.59718     3.86402    91.12399   181.40282     3.86402
    18.90000    88.87601   178.59717     3.86401    91.12399   181.40283     3.86401
    19.00000    88.87601   178.59716     3.86401    91.12399   181.40284     3.86401
    19.10000    88.87601   178.59715     3.86401    91.12399   181.40285     3.86401
    19.20000    88.87600   178.59713     3.86401    91.12400   181.40287     3.86401
    19.30000    88.87600   178.59712     3.86401    91.12400   181.40288     3.86401
    19.40000    88.87600   178.59711     3.86400    91.12400   181.40289     3.86400
    19.50000    88.87600   178.59710     3.86400    91.12400   181.40290     3.86400
    19.60000    88.87599   178.59708     3.86400    91.12401   181.40292     3.86400
    19.70000    88.87599   178.59707     3.86400    91.12401   181.40293     3.86400
    19.80000    88.87599   178.59706     3.86400    91.12401   181.40294     3.86400
    19.90000    88.87599   178.59705     3.86400    91.12401   181.40295     3.86400
    20.00000    88.87598   178.59703     3.86399    91.12402   181.40297     3.86399
    20.10000    88.87598   178.59702     3.86399    91.12402   181.40298     3.86399
    20.20000    88.87598   178.59701     3.86399    91.12402   181.40299     3.86399
    20.30000    88.87598   178.59700     3.86399    91.12402   181.40300     3.86399
    20.40000    88.87597   178.59698     3.86398    91.12403   181.40302     3.86398
    20.50000    88.87597   178.59697     3.86398    91.12403   181.40303     3.86398
    20.60000    88.87597   178.59696     3.86398    91.12403   181.40304     3.86398
    20.70000    88.87596   178.59695     3.86398    91.12404   181.40305     3.86398
    20.80000    88.87596   178.59693     3.86398    91.12404   181.40307     3.86398
    20.90000    88.87596   178.59692     3.86397    91.12404   181.40308     3.86397
    21.00000    88.87596   178.59691     3.86397    91.12404   181.40309     3.86397
    21.10000    88.87595   178.59690     3.86397    91.12405   181.40310     3.86397
    21.20000    88.87595   178.59688     3.86397    91.12405   181.40312     3.86397
    21.30000    88.87595   178.59687     3.86397    91.12405   181.40313     3.86397
    21.40000    88.87595   178.59686     3.86396    91.12405   181.40314     3.86396
    21.50000    88.87594   178.59684     3.86396    91.12406   181.40316     3.86396
    21.60000    88.87594   178.59683     3.86396    91.12406   181.40317     3.86396
    21.70000    88.87594   178.59682     3.86396    91.12406   181.40318     3.86396
    21.80000    88.87593   178.59681     3.86395    91.12407   181.40319     3.86395
    21.90000    88.87593   178.59679     3.86395    91.12407   181.40321     3.86395
    22.00000    88.87593   178.59678     3.86395    91.12407   181.40322     3.86395
    22.10000    88.87593   178.59677     3.86395    91.12407   181.40323     3.86395
    22.20000    88.87592   178.59676     3.86394    91.12408   181.40324     3.86394
    22.30000    88.87592   178.59674     3.86394    91.12408   181.40326     3.86394
    22.40000    88.87592   178.59673     3.86394    91.12408   181.40327     3.86394
    22.50000    88.87592   178.59672     3.86394    91.12408   181.40328     3.86394
    22.60000    88.87591   178.59670     3.86393    91.12409   181.40330     3.86393
    22.70000    88.87591   178.59669     3.86393    91.12409   181.40331     3.86393
    22.80000    88.87591   178.59668     3.86393    91.12409   181.40332     3.86393
    22.90000    88.87590   178.59667     3.86393    91.12410   181.40333     3.86393
    23.00000    88.87590   178.59665     3.86392    91.12410   181.40335     3.86392
    23.10000    88.87590   178.59664     3.86392    91.12410   181.40336     3.86392
    23.20000    88.87590   178.59663     3.86392    91.12410   181.40337     3.86392
    23.30000    88.87589   178.59662     3.86392    91.12411   181.40338     3.86392
