 # applied field (T), theta (degree), phi (degree), abs for RE 3-4
     0.00000     0.00000     0.00000     4.71521     0.00000     0.00000     4.71521
     0.10000     0.14440   360.00000     4.71521     0.18977   360.00000     4.71521
     0.20000     0.28880   360.00000     4.71521     0.37955   360.00000     4.71521
     0.30000     0.43321   360.00000     4.71520     0.56933   360.00000     4.71520
     0.40000     0.57763   360.00000     4.71520     0.75911   360.00000     4.71520
     0.50000     0.72206   360.00000     4.71519     0.94890   360.00000     4.71520
     0.60000     0.86651   360.00000     4.71519     1.13870   360.00000     4.71519
     0.70000     1.01099   360.00000     4.71518     1.32850   360.00000     4.71518
     0.80000     1.15549   360.00000     4.71517     1.51832   360.00000     4.71518
     0.90000     1.30002   360.00000     4.71516     1.70816   360.00000     4.71517
     1.00000     1.48004   360.00000     4.71515     1.94460   360.00000     4.71516
     1.10000     1.62465   360.00000     4.71513     2.13447   360.00000     4.71514
     1.20000     1.76930   360.00000     4.71512     2.32436   360.00000     4.71513
     1.30000     1.91399   360.00000     4.71511     2.51426   360.00000     4.71512
     1.40000     2.05874   360.00000     4.71509     2.70419   360.00000     4.71511
     1.50000     2.20353   360.00000     4.71507     2.89414   360.00000     4.71509
     1.60000     2.34839   360.00000     4.71505     3.08412   360.00000     4.71507
     1.70000     2.49330   360.00000     4.71503     3.27412   360.00000     4.71506
     1.80000     2.63827   360.00000     4.71501     3.46415   360.00000     4.71504
     1.90000     2.78332   360.00000     4.71499     3.65421   360.00000     4.71502
     2.00000     2.92843   360.00000     4.71497     3.84431   360.00000     4.71500
     2.10000     3.07362   360.00000     4.71494     4.03443   360.00000     4.71498
     2.20000     3.21889   360.00000     4.71492     4.22459   360.00000     4.71496
     2.30000     3.36424   360.00000     4.71489     4.41479   360.00000     4.71493
     2.40000     3.50967   360.00000     4.71486     4.60502   360.00000     4.71491
     2.50000     3.65520   360.00000     4.71483     4.79530   360.00000     4.71489
     2.60000     3.80082   360.00000     4.71480     4.98561   360.00000     4.71486
     2.70000     3.94654   360.00000     4.71477     5.17597   360.00000     4.71483
     2.80000     4.09235   360.00000     4.71474     5.36637   360.00000     4.71480
     2.90000     4.27408   360.00000     4.71469     5.60357   360.00000     4.71477
     3.00000     4.42014   360.00000     4.71466     5.79408   360.00000     4.71474
     3.10000     4.56632   360.00000     4.71462     5.98463   360.00000     4.71471
     3.20000     4.71261   360.00000     4.71458     6.17524   360.00000     4.71468
     3.30000     4.85902   360.00000     4.71454     6.36590   360.00000     4.71464
     3.40000     5.00555   360.00000     4.71450     6.55661   360.00000     4.71461
     3.50000     5.15222   360.00000     4.71446     6.74738   360.00000     4.71457
     3.60000     5.29902   360.00000     4.71442     6.93820   360.00000     4.71454
     3.70000     5.44595   360.00000     4.71437     7.12908   360.00000     4.71450
     3.80000     5.59303   360.00000     4.71433     7.32002   360.00000     4.71446
     3.90000     5.74025   360.00000     4.71428     7.51103   360.00000     4.71442
     4.00000     5.88762   360.00000     4.71423     7.70209   360.00000     4.71438
     4.10000     6.03514   360.00000     4.71418     7.89322   360.00000     4.71434
     4.20000     6.18282   360.00000     4.71413     8.08442   360.00000     4.71430
     4.30000     6.33066   360.00000     4.71408     8.27568   360.00000     4.71426
     4.40000     6.47866   360.00000     4.71403     8.46701   360.00000     4.71422
     4.50000     6.62684   360.00000     4.71397     8.65841   360.00000     4.71417
     4.60000     6.77518   360.00000     4.71392     8.84989   360.00000     4.71413
     4.70000     6.92370   360.00000     4.71386     9.04143   360.00000     4.71408
     4.80000     7.10891   360.00000     4.71379     9.28010   360.00000     4.71402
     4.90000     7.25784   360.00000     4.71373     9.47182   360.00000     4.71398
     5.00000     7.40696   360.00000     4.71367     9.66361   360.00000     4.71393
     5.10000     7.55628   360.00000     4.71361     9.85548   360.00000     4.71388
     5.20000     7.70580   360.00000     4.71354    10.04743   360.00000     4.71383
     5.30000     7.85552   360.00000     4.71348    10.23946   360.00000     4.71378
     5.40000     8.00544   360.00000     4.71341    10.43157   360.00000     4.71372
     5.50000     8.15558   360.00000     4.71334    10.62377   360.00000     4.71367
     5.60000     8.30593   360.00000     4.71328    10.81606   360.00000     4.71362
     5.70000     8.45650   360.00000     4.71321    11.00843   360.00000     4.71356
     5.80000     8.60729   360.00000     4.71313    11.20089   360.00000     4.71351
     5.90000     8.75831   360.00000     4.71306    11.39343   360.00000     4.71345
     6.00000     8.90956   360.00000     4.71299    11.58607   360.00000     4.71339
     6.10000     9.06105   360.00000     4.71291    11.77880   360.00000     4.71333
     6.20000     9.21278   360.00000     4.71284    11.97163   360.00000     4.71328
     6.30000     9.36476   360.00000     4.71276    12.16454   360.00000     4.71322
     6.40000     9.51699   360.00000     4.71268    12.35756   360.00000     4.71316
     6.50000     9.66947   360.00000     4.71260    12.55067   360.00000     4.71309
     6.60000     9.82220   360.00000     4.71252    12.74387   360.00000     4.71303
     6.70000     9.97520   360.00000     4.71244    12.93718   360.00000     4.71297
     6.80000    10.16611   360.00000     4.71233    13.17810   360.00000     4.71289
     6.90000    10.31972   360.00000     4.71224    13.37163   360.00000     4.71283
     7.00000    10.47360   360.00000     4.71216    13.56527   360.00000     4.71276
     7.10000    10.62777   360.00000     4.71207    13.75901   360.00000     4.71270
     7.20000    10.78222   360.00000     4.71198    13.95286   360.00000     4.71263
     7.30000    10.93697   360.00000     4.71189    14.14681   360.00000     4.71256
     7.40000    11.09201   360.00000     4.71179    14.34087   360.00000     4.71249
     7.50000    11.24736   360.00000     4.71170    14.53504   360.00000     4.71242
     7.60000    11.40300   360.00000     4.71160    14.72932   360.00000     4.71236
     7.70000    11.55896   360.00000     4.71151    14.92371   360.00000     4.71228
     7.80000    11.71524   360.00000     4.71141    15.11821   360.00000     4.71221
     7.90000    11.87183   360.00000     4.71131    15.31283   360.00000     4.71214
     8.00000    12.02875   360.00000     4.71121    15.50756   360.00000     4.71207
     8.10000    12.18599   360.00000     4.71111    15.70240   360.00000     4.71200
     8.20000    12.34358   360.00000     4.71100    15.89737   360.00000     4.71192
     8.30000    12.50150   360.00000     4.71090    16.09244   360.00000     4.71185
     8.40000    12.65976   360.00000     4.71079    16.28764   360.00000     4.71177
     8.50000    12.81837   360.00000     4.71068    16.48295   360.00000     4.71170
     8.60000    12.97734   360.00000     4.71057    16.67839   360.00000     4.71162
     8.70000    13.17581   360.00000     4.71043    16.92199   360.00000     4.71153
     8.80000    13.33559   360.00000     4.71032    17.11770   360.00000     4.71145
     8.90000    13.49574   360.00000     4.71021    17.31354   360.00000     4.71137
     9.00000    13.65627   360.00000     4.71009    17.50949   360.00000     4.71129
     9.10000    13.81717   360.00000     4.70997    17.70557   360.00000     4.71121
     9.20000    13.97847   360.00000     4.70986    17.90178   360.00000     4.71113
     9.30000    14.14015   360.00000     4.70974    18.09812   360.00000     4.71105
     9.40000    14.30223   360.00000     4.70961    18.29458   360.00000     4.71097
     9.50000    14.46472   360.00000     4.70949    18.49117   360.00000     4.71089
     9.60000    14.62761   360.00000     4.70937    18.68789   360.00000     4.71081
     9.70000    14.79091   360.00000     4.70924    18.88474   360.00000     4.71073
     9.80000    14.95463   360.00000     4.70911    19.08172   360.00000     4.71064
     9.90000    15.11877   360.00000     4.70898    19.27884   360.00000     4.71056
    10.00000    15.28334   360.00000     4.70885    19.47608   360.00000     4.71047
    10.10000    15.44835   360.00000     4.70872    19.67347   360.00000     4.71039
    10.20000    15.61379   360.00000     4.70859    19.87098   360.00000     4.71030
    10.30000    15.77968   360.00000     4.70845    20.06863   360.00000     4.71022
    10.40000    15.98690   360.00000     4.70828    20.31504   360.00000     4.71011
    10.50000    16.15381   360.00000     4.70814    20.51300   360.00000     4.71002
    10.60000    16.32118   360.00000     4.70800    20.71109   360.00000     4.70993
    10.70000    16.48902   360.00000     4.70786    20.90933   360.00000     4.70985
    10.80000    16.65733   360.00000     4.70772    21.10771   360.00000     4.70976
    10.90000    16.82613   360.00000     4.70757    21.30622   360.00000     4.70967
    11.00000    16.99541   360.00000     4.70743    21.50488   360.00000     4.70958
    11.10000    17.16518   360.00000     4.70728    21.70368   360.00000     4.70949
    11.20000    17.33545   360.00000     4.70713    21.90263   360.00000     4.70940
    11.30000    17.50623   360.00000     4.70698    22.10171   360.00000     4.70931
    11.40000    17.67751   360.00000     4.70682    22.30094   360.00000     4.70922
    11.50000    17.84931   360.00000     4.70667    22.50032   360.00000     4.70912
    11.60000    18.02163   360.00000     4.70651    22.69984   360.00000     4.70903
    11.70000    18.19447   360.00000     4.70636    22.89951   360.00000     4.70894
    11.80000    18.41047   360.00000     4.70616    23.14846   360.00000     4.70882
    11.90000    18.58453   360.00000     4.70600    23.34846   360.00000     4.70873
    12.00000    18.75912   360.00000     4.70583    23.54861   360.00000     4.70863
    12.10000    18.93428   360.00000     4.70567    23.74891   360.00000     4.70854
    12.20000    19.10999   360.00000     4.70550    23.94936   360.00000     4.70844
    12.30000    19.28626   360.00000     4.70534    24.14996   360.00000     4.70835
    12.40000    19.46311   360.00000     4.70517    24.35071   360.00000     4.70825
    12.50000    19.64053   360.00000     4.70499    24.55162   360.00000     4.70816
    12.60000    19.81854   360.00000     4.70482    24.75268   360.00000     4.70806
    12.70000    19.99714   360.00000     4.70465    24.95389   360.00000     4.70796
    12.80000    20.17633   360.00000     4.70447    25.15526   360.00000     4.70787
    12.90000    20.40034   360.00000     4.70425    25.40635   360.00000     4.70774
    13.00000    20.58090   360.00000     4.70407    25.60807   360.00000     4.70765
    13.10000    20.76207   360.00000     4.70389    25.80995   360.00000     4.70755
    13.20000    20.94386   360.00000     4.70371    26.01199   360.00000     4.70745
    13.30000    21.12629   360.00000     4.70352    26.21418   360.00000     4.70735
    13.40000    21.30935   360.00000     4.70333    26.41654   360.00000     4.70725
    13.50000    21.49305   360.00000     4.70315    26.61905   360.00000     4.70715
    13.60000    21.67741   360.00000     4.70296    26.82173   360.00000     4.70705
    13.70000    21.86242   360.00000     4.70277    27.02456   360.00000     4.70695
    13.80000    22.09376   360.00000     4.70253    27.27750   360.00000     4.70682
    13.90000    22.28026   360.00000     4.70233    27.48071   360.00000     4.70672
    14.00000    22.46744   360.00000     4.70213    27.68408   360.00000     4.70662
    14.10000    22.65531   360.00000     4.70193    27.88761   360.00000     4.70651
    14.20000    22.84386   360.00000     4.70173    28.09131   360.00000     4.70641
    14.30000    23.03311   360.00000     4.70153    28.29518   360.00000     4.70631
    14.40000    23.22306   360.00000     4.70133    28.49922   360.00000     4.70620
    14.50000    23.46063   360.00000     4.70107    28.75367   360.00000     4.70607
    14.60000    23.65218   360.00000     4.70087    28.95809   360.00000     4.70597
    14.70000    23.84446   360.00000     4.70066    29.16267   360.00000     4.70586
    14.80000    24.03747   360.00000     4.70045    29.36743   360.00000     4.70576
    14.90000    24.23122   360.00000     4.70023    29.57236   360.00000     4.70565
    15.00000    24.42571   360.00000     4.70002    29.77747   360.00000     4.70554
    15.10000    24.66899   360.00000     4.69975    30.03327   360.00000     4.70541
    15.20000    24.86518   360.00000     4.69953    30.23877   360.00000     4.70531
    15.30000    25.06213   360.00000     4.69931    30.44444   360.00000     4.70520
    15.40000    25.25985   360.00000     4.69909    30.65030   360.00000     4.70509
    15.50000    25.45835   360.00000     4.69887    30.85633   360.00000     4.70498
    15.60000    25.70668   360.00000     4.69859    31.11330   360.00000     4.70485
    15.70000    25.90695   360.00000     4.69837    31.31974   360.00000     4.70474
    15.80000    26.10802   360.00000     4.69814    31.52635   360.00000     4.70463
    15.90000    26.30990   360.00000     4.69791    31.73316   360.00000     4.70452
    16.00000    26.56248   360.00000     4.69762    31.99110   360.00000     4.70438
    16.10000    26.76619   360.00000     4.69739    32.19832   360.00000     4.70427
    16.20000    26.97072   360.00000     4.69715    32.40572   360.00000     4.70416
    16.30000    27.17609   360.00000     4.69692    32.61332   360.00000     4.70405
    16.40000    27.43306   360.00000     4.69662    32.87226   360.00000     4.70391
    16.50000    27.64032   360.00000     4.69638    33.08028   360.00000     4.70380
    16.60000    27.84843   360.00000     4.69614    33.28850   360.00000     4.70368
    16.70000    28.10886   360.00000     4.69584    33.54822   360.00000     4.70354
    16.80000    28.31891   360.00000     4.69560    33.75688   360.00000     4.70343
    16.90000    28.52983   360.00000     4.69535    33.96572   360.00000     4.70331
    17.00000    28.74163   360.00000     4.69510    34.17477   360.00000     4.70320
    17.10000    29.00669   360.00000     4.69480    34.43555   360.00000     4.70305
    17.20000    29.22048   360.00000     4.69455    34.64504   360.00000     4.70294
    17.30000    29.43517   360.00000     4.69429    34.85474   360.00000     4.70282
    17.40000    29.70386   360.00000     4.69398    35.11635   360.00000     4.70267
    17.50000    29.92058   360.00000     4.69373    35.32651   360.00000     4.70256
    17.60000    30.19183   360.00000     4.69341    35.58870   360.00000     4.70241
    17.70000    30.41061   360.00000     4.69315    35.79933   360.00000     4.70229
    17.80000    30.63032   360.00000     4.69289    36.01017   360.00000     4.70217
    17.90000    30.90532   360.00000     4.69257    36.27322   360.00000     4.70202
    18.00000    31.12713   360.00000     4.69231    36.48455   360.00000     4.70190
    18.10000    31.40476   360.00000     4.69199    36.74821   360.00000     4.70175
    18.20000    31.62869   360.00000     4.69172    36.96003   360.00000     4.70163
    18.30000    31.90899   360.00000     4.69140    37.22432   360.00000     4.70147
    18.40000    32.13507   360.00000     4.69113    37.43664   360.00000     4.70135
    18.50000    32.41806   360.00000     4.69080    37.70156   360.00000     4.70120
    18.60000    32.64630   360.00000     4.69053    37.91439   360.00000     4.70107
    18.70000    32.93201   360.00000     4.69020    38.17996   360.00000     4.70091
    18.80000    33.16244   360.00000     4.68993    38.39331   360.00000     4.70079
    18.90000    33.45089   360.00000     4.68960    38.65954   360.00000     4.70063
    19.00000    33.74087   360.00000     4.68926    38.92615   360.00000     4.70047
    19.10000    33.97474   360.00000     4.68899    39.14034   360.00000     4.70034
    19.20000    34.26749   360.00000     4.68865    39.40763   360.00000     4.70018
    19.30000    34.50359   360.00000     4.68838    39.62236   360.00000     4.70005
    19.40000    34.79913   360.00000     4.68804    39.89035   360.00000     4.69988
    19.50000    35.09623   360.00000     4.68770    40.15874   360.00000     4.69972
    19.60000    35.33582   360.00000     4.68743    40.37436   360.00000     4.69959
    19.70000    35.63574   360.00000     4.68709    40.64347   360.00000     4.69942
    19.80000    35.93722   360.00000     4.68675    40.91299   360.00000     4.69925
    19.90000    36.24027   360.00000     4.68641    41.18293   360.00000     4.69908
    20.00000    36.54489   360.00000     4.68607    41.45328   360.00000     4.69891
    20.10000    36.79051   360.00000     4.68580    41.67049   360.00000     4.69877
    20.20000    37.09796   360.00000     4.68546    41.94162   360.00000     4.69860
    20.30000    37.40699   360.00000     4.68512    42.21318   360.00000     4.69842
    20.40000    37.71759   360.00000     4.68478    42.48519   360.00000     4.69825
    20.50000    38.02976   360.00000     4.68444    42.75764   360.00000     4.69807
    20.60000    38.34351   360.00000     4.68410    43.03056   360.00000     4.69789
    20.70000    38.65883   360.00000     4.68377    43.30393   360.00000     4.69771
    20.80000    38.97571   360.00000     4.68343    43.57777   360.00000     4.69753
    20.90000    39.29415   360.00000     4.68310    43.85208   360.00000     4.69734
    21.00000    39.61416   360.00000     4.68276    44.12688   360.00000     4.69716
    21.10000    39.93572   360.00000     4.68243    44.40216   360.00000     4.69697
    21.20000    40.32284   360.00000     4.68204    44.73256   360.00000     4.69675
    21.30000    40.64780   360.00000     4.68171    45.00894   360.00000     4.69655
    21.40000    40.97430   360.00000     4.68139    45.28583   360.00000     4.69636
    21.50000    41.30232   360.00000     4.68106    45.56325   360.00000     4.69617
    21.60000    41.69715   360.00000     4.68068    45.89624   360.00000     4.69593
    21.70000    42.02850   360.00000     4.68036    46.17482   360.00000     4.69573
    21.80000    42.36134   360.00000     4.68004    46.45395   360.00000     4.69553
    21.90000    42.76192   360.00000     4.67967    46.78904   360.00000     4.69529
    22.00000    43.09801   360.00000     4.67936    47.06939   360.00000     4.69508
    22.10000    43.50246   360.00000     4.67899    47.40597   360.00000     4.69483
    22.20000    43.90898   360.00000     4.67863    47.74340   360.00000     4.69458
    22.30000    44.24998   360.00000     4.67833    48.02572   360.00000     4.69437
    22.40000    44.66024   360.00000     4.67798    48.36472   360.00000     4.69411
    22.50000    45.07251   360.00000     4.67764    48.70460   360.00000     4.69385
    22.60000    45.48676   360.00000     4.67730    49.04537   360.00000     4.69359
    22.70000    45.90294   360.00000     4.67696    49.38706   360.00000     4.69332
    22.80000    46.32104   360.00000     4.67663    49.72968   360.00000     4.69305
    22.90000    46.74101   360.00000     4.67631    50.07324   360.00000     4.69278
    23.00000    47.16282   360.00000     4.67600    50.41777   360.00000     4.69250
    23.10000    47.58643   360.00000     4.67569    50.76328   360.00000     4.69222
    23.20000    48.01181   360.00000     4.67539    51.10978   360.00000     4.69194
    23.30000    48.50963   360.00000     4.67505    51.51485   360.00000     4.69160
