 # applied field (T), theta (degree), phi (degree), abs [muB/unitcell], abs [T]
       0.00000000       0.00000000       0.00000000      37.27651723       1.25466549
       0.10000000       1.08669366     360.00000000      37.27666243       1.25467038
       0.20000000       2.17339841     360.00000000      37.27673718       1.25467290
       0.30000000       3.26012097     360.00000000      37.27674181       1.25467305
       0.40000000       4.34686787     360.00000000      37.27667689       1.25467087
       0.50000000       5.49080884     360.00000000      37.27653301       1.25466602
       0.60000000       6.57762556     360.00000000      37.27632793       1.25465912
       0.70000000       7.66448553     360.00000000      37.27605659       1.25464999
       0.80000000       8.80856556     360.00000000      37.27569906       1.25463795
       0.90000000       9.95270664     360.00000000      37.27527146       1.25462356
       1.00000000      11.03973704     360.00000000      37.27480496       1.25460786
       1.10000000      12.18401460     360.00000000      37.27424809       1.25458912
       1.20000000      13.38555664     360.00000000      37.27359346       1.25456708
       1.30000000      14.53000069     360.00000000      37.27291208       1.25454415
       1.40000000      15.73172894     360.00000000      37.27213337       1.25451794
       1.50000000      16.93356051     360.00000000      37.27129695       1.25448979
       1.60000000      18.13550012     360.00000000      37.27040713       1.25445984
       1.70000000      19.39476416     360.00000000      37.26941857       1.25442656
       1.80000000      20.65415628     360.00000000      37.26838121       1.25439165
       1.90000000      21.91368034     360.00000000      37.26730055       1.25435527
       2.00000000      23.23057095     360.00000000      37.26612603       1.25431574
       2.10000000      24.54761299     360.00000000      37.26491631       1.25427503
       2.20000000      25.92205454     360.00000000      37.26361867       1.25423135
       2.30000000      27.35391969     360.00000000      37.26223626       1.25418482
       2.40000000      28.78597167     360.00000000      37.26083503       1.25413766
       2.50000000      30.27548038     360.00000000      37.25936118       1.25408805
       2.60000000      31.87974805     360.00000000      37.25775978       1.25403415
       2.70000000      33.48425099     360.00000000      37.25616320       1.25398041
       2.80000000      35.14628193     360.00000000      37.25451939       1.25392508
       2.90000000      36.92316786     360.00000000      37.25277861       1.25386649
       3.00000000      38.75764218     360.00000000      37.25101520       1.25380714
       3.10000000      40.70704661     360.00000000      37.24918433       1.25374551
       3.20000000      42.82875766     360.00000000      37.24724828       1.25368035
       3.30000000      45.06549736     360.00000000      37.24528636       1.25361431
       3.40000000      47.53200133     360.00000000      37.24321582       1.25354462
       3.50000000      50.22834131     360.00000000      37.24107091       1.25347243
       3.60000000      53.26931103     360.00000000      37.23879466       1.25339581
       3.70000000      56.71235668     360.00000000      37.23639179       1.25331494
       3.80000000      60.90182474     360.00000000      37.23366632       1.25322320
       3.90000000      66.35425089     360.00000000      37.23039490       1.25311309
       4.00000000      74.50430912     360.00000000      37.22593703       1.25296305
       4.10000000      90.00000000     360.00000000      37.21866837       1.25271840
       4.20000000      90.00000000     360.00000000      37.21892106       1.25272690
       4.30000000      90.00000000     360.00000000      37.21917373       1.25273541
       4.40000000      90.00000000     360.00000000      37.21942637       1.25274391
       4.50000000      90.00000000     360.00000000      37.21967900       1.25275241
       4.60000000      90.00000000     360.00000000      37.21993160       1.25276091
       4.70000000      90.00000000     360.00000000      37.22018418       1.25276942
       4.80000000      90.00000000     360.00000000      37.22043674       1.25277792
       4.90000000      90.00000000     360.00000000      37.22068927       1.25278642
       5.00000000      90.00000000     360.00000000      37.22094179       1.25279492
       5.10000000      90.00000000     360.00000000      37.22119428       1.25280341
       5.20000000      90.00000000     360.00000000      37.22144675       1.25281191
       5.30000000      90.00000000     360.00000000      37.22169920       1.25282041
       5.40000000      90.00000000     360.00000000      37.22195162       1.25282891
       5.50000000      90.00000000     360.00000000      37.22220403       1.25283740
       5.60000000      90.00000000     360.00000000      37.22245641       1.25284590
       5.70000000      90.00000000     360.00000000      37.22270877       1.25285439
       5.80000000      90.00000000     360.00000000      37.22296111       1.25286288
       5.90000000      90.00000000     360.00000000      37.22321342       1.25287138
       6.00000000      90.00000000     360.00000000      37.22346572       1.25287987
       6.10000000      90.00000000     360.00000000      37.22371799       1.25288836
       6.20000000      90.00000000     360.00000000      37.22397024       1.25289685
       6.30000000      90.00000000     360.00000000      37.22422247       1.25290534
       6.40000000      90.00000000     360.00000000      37.22447468       1.25291383
       6.50000000      90.00000000     360.00000000      37.22472686       1.25292232
       6.60000000      90.00000000     360.00000000      37.22497902       1.25293080
       6.70000000      90.00000000     360.00000000      37.22523117       1.25293929
       6.80000000      90.00000000     360.00000000      37.22548328       1.25294778
       6.90000000      90.00000000     360.00000000      37.22573538       1.25295626
       7.00000000      90.00000000     360.00000000      37.22598746       1.25296474
       7.10000000      90.00000000     360.00000000      37.22623951       1.25297323
       7.20000000      90.00000000     360.00000000      37.22649154       1.25298171
       7.30000000      90.00000000     360.00000000      37.22674355       1.25299019
       7.40000000      90.00000000     360.00000000      37.22699554       1.25299868
       7.50000000      90.00000000     360.00000000      37.22724751       1.25300716
       7.60000000      90.00000000     360.00000000      37.22749945       1.25301564
       7.70000000      90.00000000     360.00000000      37.22775138       1.25302412
       7.80000000      90.00000000     360.00000000      37.22800328       1.25303259
       7.90000000      90.00000000     360.00000000      37.22825516       1.25304107
       8.00000000      90.00000000     360.00000000      37.22850702       1.25304955
       8.10000000      90.00000000     360.00000000      37.22875885       1.25305803
       8.20000000      90.00000000     360.00000000      37.22901067       1.25306650
       8.30000000      90.00000000     360.00000000      37.22926246       1.25307498
       8.40000000      90.00000000     360.00000000      37.22951423       1.25308345
       8.50000000      90.00000000     360.00000000      37.22976598       1.25309192
       8.60000000      90.00000000     360.00000000      37.23001771       1.25310040
       8.70000000      90.00000000     360.00000000      37.23026941       1.25310887
       8.80000000      90.00000000     360.00000000      37.23052110       1.25311734
       8.90000000      90.00000000     360.00000000      37.23077276       1.25312581
       9.00000000      90.00000000     360.00000000      37.23102440       1.25313428
       9.10000000      90.00000000     360.00000000      37.23127602       1.25314275
       9.20000000      90.00000000     360.00000000      37.23152762       1.25315122
       9.30000000      90.00000000     360.00000000      37.23177919       1.25315969
       9.40000000      90.00000000     360.00000000      37.23203075       1.25316815
       9.50000000      90.00000000     360.00000000      37.23228228       1.25317662
       9.60000000      90.00000000     360.00000000      37.23253379       1.25318508
       9.70000000      90.00000000     360.00000000      37.23278528       1.25319355
       9.80000000      90.00000000     360.00000000      37.23303675       1.25320201
       9.90000000      90.00000000     360.00000000      37.23328820       1.25321048
      10.00000000      90.00000000     360.00000000      37.23353962       1.25321894
      10.10000000      90.00000000     360.00000000      37.23379103       1.25322740
      10.20000000      90.00000000     360.00000000      37.23404241       1.25323586
      10.30000000      90.00000000     360.00000000      37.23429377       1.25324432
      10.40000000      90.00000000     360.00000000      37.23454511       1.25325278
      10.50000000      90.00000000     360.00000000      37.23479642       1.25326124
      10.60000000      90.00000000     360.00000000      37.23504772       1.25326970
      10.70000000      90.00000000     360.00000000      37.23529899       1.25327816
      10.80000000      90.00000000     360.00000000      37.23555025       1.25328661
      10.90000000      90.00000000     360.00000000      37.23580148       1.25329507
      11.00000000      90.00000000     360.00000000      37.23605269       1.25330352
      11.10000000      90.00000000     360.00000000      37.23630387       1.25331198
      11.20000000      90.00000000     360.00000000      37.23655504       1.25332043
      11.30000000      90.00000000     360.00000000      37.23680619       1.25332889
      11.40000000      90.00000000     360.00000000      37.23705731       1.25333734
      11.50000000      90.00000000     360.00000000      37.23730841       1.25334579
      11.60000000      90.00000000     360.00000000      37.23755949       1.25335424
      11.70000000      90.00000000     360.00000000      37.23781055       1.25336269
      11.80000000      90.00000000     360.00000000      37.23806159       1.25337114
      11.90000000      90.00000000     360.00000000      37.23831261       1.25337959
      12.00000000      90.00000000     360.00000000      37.23856360       1.25338804
      12.10000000      90.00000000     360.00000000      37.23881458       1.25339648
      12.20000000      90.00000000     360.00000000      37.23906553       1.25340493
      12.30000000      90.00000000     360.00000000      37.23931646       1.25341338
      12.40000000      90.00000000     360.00000000      37.23956737       1.25342182
      12.50000000      90.00000000     360.00000000      37.23981826       1.25343027
      12.60000000      90.00000000     360.00000000      37.24006913       1.25343871
      12.70000000      90.00000000     360.00000000      37.24031997       1.25344715
      12.80000000      90.00000000     360.00000000      37.24057080       1.25345560
      12.90000000      90.00000000     360.00000000      37.24082160       1.25346404
      13.00000000      90.00000000     360.00000000      37.24107238       1.25347248
      13.10000000      90.00000000     360.00000000      37.24132314       1.25348092
      13.20000000      90.00000000     360.00000000      37.24157388       1.25348936
      13.30000000      90.00000000     360.00000000      37.24182460       1.25349780
      13.40000000      90.00000000     360.00000000      37.24207530       1.25350623
      13.50000000      90.00000000     360.00000000      37.24232597       1.25351467
      13.60000000      90.00000000     360.00000000      37.24257663       1.25352311
      13.70000000      90.00000000     360.00000000      37.24282726       1.25353154
      13.80000000      90.00000000     360.00000000      37.24307787       1.25353998
      13.90000000      90.00000000     360.00000000      37.24332846       1.25354841
      14.00000000      90.00000000     360.00000000      37.24357903       1.25355685
      14.10000000      90.00000000     360.00000000      37.24382958       1.25356528
      14.20000000      90.00000000     360.00000000      37.24408010       1.25357371
      14.30000000      90.00000000     360.00000000      37.24433061       1.25358214
      14.40000000      90.00000000     360.00000000      37.24458109       1.25359058
      14.50000000      90.00000000     360.00000000      37.24483156       1.25359901
      14.60000000      90.00000000     360.00000000      37.24508200       1.25360744
      14.70000000      90.00000000     360.00000000      37.24533242       1.25361586
      14.80000000      90.00000000     360.00000000      37.24558282       1.25362429
      14.90000000      90.00000000     360.00000000      37.24583320       1.25363272
      15.00000000      90.00000000     360.00000000      37.24608356       1.25364115
      15.10000000      90.00000000     360.00000000      37.24633389       1.25364957
      15.20000000      90.00000000     360.00000000      37.24658421       1.25365800
      15.30000000      90.00000000     360.00000000      37.24683450       1.25366642
      15.40000000      90.00000000     360.00000000      37.24708477       1.25367485
      15.50000000      90.00000000     360.00000000      37.24733503       1.25368327
      15.60000000      90.00000000     360.00000000      37.24758526       1.25369169
      15.70000000      90.00000000     360.00000000      37.24783547       1.25370011
      15.80000000      90.00000000     360.00000000      37.24808566       1.25370853
      15.90000000      90.00000000     360.00000000      37.24833582       1.25371695
      16.00000000      90.00000000     360.00000000      37.24858597       1.25372537
      16.10000000      90.00000000     360.00000000      37.24883609       1.25373379
      16.20000000      90.00000000     360.00000000      37.24908620       1.25374221
      16.30000000      90.00000000     360.00000000      37.24933628       1.25375063
      16.40000000      90.00000000     360.00000000      37.24958634       1.25375904
      16.50000000      90.00000000     360.00000000      37.24983639       1.25376746
      16.60000000      90.00000000     360.00000000      37.25008641       1.25377588
      16.70000000      90.00000000     360.00000000      37.25033641       1.25378429
      16.80000000      90.00000000     360.00000000      37.25058638       1.25379270
      16.90000000      90.00000000     360.00000000      37.25083634       1.25380112
      17.00000000      90.00000000     360.00000000      37.25108628       1.25380953
      17.10000000      90.00000000     360.00000000      37.25133619       1.25381794
      17.20000000      90.00000000     360.00000000      37.25158609       1.25382635
      17.30000000      90.00000000     360.00000000      37.25183596       1.25383476
      17.40000000      90.00000000     360.00000000      37.25208581       1.25384317
      17.50000000      90.00000000     360.00000000      37.25233565       1.25385158
      17.60000000      90.00000000     360.00000000      37.25258546       1.25385999
      17.70000000      90.00000000     360.00000000      37.25283525       1.25386840
      17.80000000      90.00000000     360.00000000      37.25308502       1.25387680
      17.90000000      90.00000000     360.00000000      37.25333476       1.25388521
      18.00000000      90.00000000     360.00000000      37.25358449       1.25389362
      18.10000000      90.00000000     360.00000000      37.25383420       1.25390202
      18.20000000      90.00000000     360.00000000      37.25408388       1.25391042
      18.30000000      90.00000000     360.00000000      37.25433355       1.25391883
      18.40000000      90.00000000     360.00000000      37.25458319       1.25392723
      18.50000000      90.00000000     360.00000000      37.25483282       1.25393563
      18.60000000      90.00000000     360.00000000      37.25508242       1.25394403
      18.70000000      90.00000000     360.00000000      37.25533200       1.25395243
      18.80000000      90.00000000     360.00000000      37.25558156       1.25396083
      18.90000000      90.00000000     360.00000000      37.25583110       1.25396923
      19.00000000      90.00000000     360.00000000      37.25608062       1.25397763
      19.10000000      90.00000000     360.00000000      37.25633012       1.25398603
      19.20000000      90.00000000     360.00000000      37.25657959       1.25399443
      19.30000000      90.00000000     360.00000000      37.25682905       1.25400282
      19.40000000      90.00000000     360.00000000      37.25707849       1.25401122
      19.50000000      90.00000000     360.00000000      37.25732790       1.25401961
      19.60000000      90.00000000     360.00000000      37.25757730       1.25402801
      19.70000000      90.00000000     360.00000000      37.25782667       1.25403640
      19.80000000      90.00000000     360.00000000      37.25807602       1.25404479
      19.90000000      90.00000000     360.00000000      37.25832535       1.25405318
      20.00000000      90.00000000     360.00000000      37.25857467       1.25406158
      20.10000000      90.00000000     360.00000000      37.25882396       1.25406997
      20.20000000      90.00000000     360.00000000      37.25907323       1.25407836
      20.30000000      90.00000000     360.00000000      37.25932248       1.25408675
      20.40000000      90.00000000     360.00000000      37.25957170       1.25409513
      20.50000000      90.00000000     360.00000000      37.25982091       1.25410352
      20.60000000      90.00000000     360.00000000      37.26007010       1.25411191
      20.70000000      90.00000000     360.00000000      37.26031927       1.25412030
      20.80000000      90.00000000     360.00000000      37.26056841       1.25412868
      20.90000000      90.00000000     360.00000000      37.26081754       1.25413707
      21.00000000      90.00000000     360.00000000      37.26106664       1.25414545
      21.10000000      90.00000000     360.00000000      37.26131573       1.25415384
      21.20000000      90.00000000     360.00000000      37.26156479       1.25416222
      21.30000000      90.00000000     360.00000000      37.26181383       1.25417060
      21.40000000      90.00000000     360.00000000      37.26206286       1.25417898
      21.50000000      90.00000000     360.00000000      37.26231186       1.25418736
      21.60000000      90.00000000     360.00000000      37.26256084       1.25419574
      21.70000000      90.00000000     360.00000000      37.26280980       1.25420412
      21.80000000      90.00000000     360.00000000      37.26305874       1.25421250
      21.90000000      90.00000000     360.00000000      37.26330766       1.25422088
      22.00000000      90.00000000     360.00000000      37.26355656       1.25422926
      22.10000000      90.00000000     360.00000000      37.26380544       1.25423764
      22.20000000      90.00000000     360.00000000      37.26405430       1.25424601
      22.30000000      90.00000000     360.00000000      37.26430313       1.25425439
      22.40000000      90.00000000     360.00000000      37.26455195       1.25426276
      22.50000000      90.00000000     360.00000000      37.26480075       1.25427114
      22.60000000      90.00000000     360.00000000      37.26504952       1.25427951
      22.70000000      90.00000000     360.00000000      37.26529828       1.25428788
      22.80000000      90.00000000     360.00000000      37.26554702       1.25429625
      22.90000000      90.00000000     360.00000000      37.26579573       1.25430462
      23.00000000      90.00000000     360.00000000      37.26604442       1.25431300
