 # applied field (T), theta (degree), phi (degree), abs [muB/unitcell], abs [T]
       0.00000000       0.00000000       0.00000000      51.65123585       1.77729016
       0.10000000       0.34102058      45.00000000      51.65123654       1.77729018
       0.20000000       0.68204172      45.00000000      51.65123859       1.77729025
       0.30000000       1.02306400      45.00000000      51.65124203       1.77729037
       0.40000000       1.30735259      45.00000000      51.65124656       1.77729052
       0.50000000       1.64837842      45.00000000      51.65125269       1.77729074
       0.60000000       1.98940699      45.00000000      51.65126023       1.77729099
       0.70000000       2.33043886      45.00000000      51.65126918       1.77729130
       0.80000000       2.67147460      45.00000000      51.65127955       1.77729166
       0.90000000       3.01251478      45.00000000      51.65129137       1.77729207
       1.00000000       3.35355996      45.00000000      51.65130465       1.77729252
       1.10000000       3.69461071      45.00000000      51.65131942       1.77729303
       1.20000000       3.97892633      45.00000000      51.65133474       1.77729356
       1.30000000       4.31998873      45.00000000      51.65135246       1.77729417
       1.40000000       4.66105830      45.00000000      51.65137174       1.77729483
       1.50000000       5.00213559      45.00000000      51.65139261       1.77729555
       1.60000000       5.34322117      45.00000000      51.65141510       1.77729632
       1.70000000       5.68431560      45.00000000      51.65143926       1.77729715
       1.80000000       6.02541943      45.00000000      51.65146511       1.77729804
       1.90000000       6.36653323      45.00000000      51.65149269       1.77729899
       2.00000000       6.70765755      45.00000000      51.65152206       1.77730000
       2.10000000       7.04879296      45.00000000      51.65155324       1.77730108
       2.20000000       7.38994000      45.00000000      51.65158628       1.77730221
       2.30000000       7.73109922      45.00000000      51.65162124       1.77730342
       2.40000000       8.07227119      45.00000000      51.65165816       1.77730469
       2.50000000       8.35669297      45.00000000      51.65169431       1.77730593
       2.60000000       8.69788969      45.00000000      51.65173510       1.77730733
       2.70000000       9.03910071      45.00000000      51.65177800       1.77730881
       2.80000000       9.38032658      45.00000000      51.65182306       1.77731036
       2.90000000       9.77834141      45.00000000      51.65187396       1.77731211
       3.00000000      10.11960135      45.00000000      51.65192375       1.77731383
       3.10000000      10.46087786      45.00000000      51.65197589       1.77731562
       3.20000000      10.80217147      45.00000000      51.65203044       1.77731750
       3.30000000      11.14348272      45.00000000      51.65208745       1.77731946
       3.40000000      11.48481215      45.00000000      51.65214700       1.77732151
       3.50000000      11.82616029      45.00000000      51.65220915       1.77732365
       3.60000000      12.16752766      45.00000000      51.65227396       1.77732588
       3.70000000      12.50891480      45.00000000      51.65234150       1.77732820
       3.80000000      12.85032222      45.00000000      51.65241184       1.77733062
       3.90000000      13.24855623      45.00000000      51.65249157       1.77733336
       4.00000000      13.59000946      45.00000000      51.65256806       1.77733600
       4.10000000      13.93148462      45.00000000      51.65264757       1.77733873
       4.20000000      14.27298222      45.00000000      51.65273017       1.77734157
       4.30000000      14.61450278      45.00000000      51.65281592       1.77734452
       4.40000000      15.01287244      45.00000000      51.65291337       1.77734788
       4.50000000      15.35444452      45.00000000      51.65300607       1.77735107
       4.60000000      15.69604115      45.00000000      51.65310216       1.77735437
       4.70000000      16.09450178      45.00000000      51.65321152       1.77735814
       4.80000000      16.43615334      45.00000000      51.65331505       1.77736170
       4.90000000      16.77783099      45.00000000      51.65342218       1.77736539
       5.00000000      17.17638833      45.00000000      51.65354431       1.77736959
       5.10000000      17.51812424      45.00000000      51.65365937       1.77737355
       5.20000000      17.91675102      45.00000000      51.65379067       1.77737807
       5.30000000      18.25854740      45.00000000      51.65391399       1.77738231
       5.40000000      18.65724619      45.00000000      51.65405485       1.77738716
       5.50000000      18.99910519      45.00000000      51.65418676       1.77739169
       5.60000000      19.39787850      45.00000000      51.65433755       1.77739688
       5.70000000      19.79669298      45.00000000      51.65449378       1.77740226
       5.80000000      20.13865250      45.00000000      51.65463946       1.77740727
       5.90000000      20.53754522      45.00000000      51.65480618       1.77741301
       6.00000000      20.93648110      45.00000000      51.65497864       1.77741894
       6.10000000      21.33546080      45.00000000      51.65515694       1.77742508
       6.20000000      21.73448497      45.00000000      51.65534116       1.77743142
       6.30000000      22.07662628      45.00000000      51.65551174       1.77743729
       6.40000000      22.47573462      45.00000000      51.65570732       1.77744402
       6.50000000      22.87488924      45.00000000      51.65590907       1.77745096
       6.60000000      23.27409073      45.00000000      51.65611708       1.77745812
       6.70000000      23.67333968      45.00000000      51.65633142       1.77746549
       6.80000000      24.12959896      45.00000000      51.65657581       1.77747390
       6.90000000      24.52895165      45.00000000      51.65680387       1.77748175
       7.00000000      24.92835356      45.00000000      51.65703847       1.77748982
       7.10000000      25.32780520      45.00000000      51.65727968       1.77749812
       7.20000000      25.78429939      45.00000000      51.65755469       1.77750758
       7.30000000      26.18385943      45.00000000      51.65781013       1.77751637
       7.40000000      26.64047908      45.00000000      51.65810133       1.77752639
       7.50000000      27.04014969      45.00000000      51.65837119       1.77753568
       7.60000000      27.49689718      45.00000000      51.65867876       1.77754626
       7.70000000      27.95371384      45.00000000      51.65899509       1.77755715
       7.80000000      28.35355783      45.00000000      51.65928725       1.77756720
       7.90000000      28.81050556      45.00000000      51.65962012       1.77757865
       8.00000000      29.26752406      45.00000000      51.65996178       1.77759041
       8.10000000      29.72461379      45.00000000      51.66031223       1.77760247
       8.20000000      30.23885396      45.00000000      51.66070849       1.77761610
       8.30000000      30.69609670      45.00000000      51.66107747       1.77762880
       8.40000000      31.15341195      45.00000000      51.66145514       1.77764180
       8.50000000      31.66790778      45.00000000      51.66188168       1.77765647
       8.60000000      32.12537833      45.00000000      51.66227755       1.77767009
       8.70000000      32.64004997      45.00000000      51.66272427       1.77768547
       8.80000000      33.15481524      45.00000000      51.66318146       1.77770120
       8.90000000      33.66967435      45.00000000      51.66364898       1.77771728
       9.00000000      34.18462745      45.00000000      51.66412665       1.77773372
       9.10000000      34.75684618      45.00000000      51.66466111       1.77775211
       9.20000000      35.27199810      45.00000000      51.66515955       1.77776926
       9.30000000      35.84443816      45.00000000      51.66571647       1.77778843
       9.40000000      36.41699460      45.00000000      51.66628472       1.77780798
       9.50000000      36.98966712      45.00000000      51.66686394       1.77782791
       9.60000000      37.61968620      45.00000000      51.66750596       1.77785000
       9.70000000      38.19260126      45.00000000      51.66810690       1.77787068
       9.80000000      38.82288627      45.00000000      51.66877174       1.77789356
       9.90000000      39.45330933      45.00000000      51.66944764       1.77791681
      10.00000000      40.14115145      45.00000000      51.67019015       1.77794236
      10.10000000      40.82915538      45.00000000      51.67094416       1.77796831
      10.20000000      41.51731918      45.00000000      51.67170879       1.77799462
      10.30000000      42.26296467      45.00000000      51.67254187       1.77802328
      10.40000000      43.00879292      45.00000000      51.67338507       1.77805230
      10.50000000      43.75480062      45.00000000      51.67423714       1.77808162
      10.60000000      44.61571958      45.00000000      51.67521834       1.77811538
      10.70000000      45.41948473      45.00000000      51.67614641       1.77814731
      10.80000000      46.33824100      45.00000000      51.67720324       1.77818368
      10.90000000      47.25724493      45.00000000      51.67826484       1.77822021
      11.00000000      48.29134999      45.00000000      51.67945287       1.77826109
      11.10000000      49.32574681      45.00000000      51.68064066       1.77830196
      11.20000000      50.41788633      45.00000000      51.68188665       1.77834483
      11.30000000      51.68276532      45.00000000      51.68330872       1.77839376
      11.40000000      52.94801765      45.00000000      51.68471559       1.77844217
      11.50000000      54.38616637      45.00000000      51.68628031       1.77849602
      11.60000000      55.99733322      45.00000000      51.68798612       1.77855471
      11.70000000      57.78162930      45.00000000      51.68981109       1.77861751
      11.80000000      59.79672008      45.00000000      51.69178124       1.77868530
      11.90000000      62.10031673      45.00000000      51.69390546       1.77875839
      12.00000000      64.86537459      45.00000000      51.69626176       1.77883947
      12.10000000      68.14974379      45.00000000      51.69877792       1.77892605
      12.20000000      72.18415925      45.00000000      51.70143534       1.77901749
      12.30000000      77.43005820      45.00000000      51.70415127       1.77911095
      12.40000000      87.57811723      45.00000000      51.70683966       1.77920345
      12.50000000      90.00000000      45.00000000      51.70698887       1.77920859
      12.60000000      90.00000000      45.00000000      51.70703378       1.77921013
      12.70000000      90.00000000      45.00000000      51.70707869       1.77921168
      12.80000000      90.00000000      45.00000000      51.70712360       1.77921322
      12.90000000      90.00000000      45.00000000      51.70716852       1.77921477
      13.00000000      90.00000000      45.00000000      51.70721345       1.77921631
      13.10000000      90.00000000      45.00000000      51.70725838       1.77921786
      13.20000000      90.00000000      45.00000000      51.70730331       1.77921941
      13.30000000      90.00000000      45.00000000      51.70734826       1.77922095
      13.40000000      90.00000000      45.00000000      51.70739320       1.77922250
      13.50000000      90.00000000      45.00000000      51.70743815       1.77922405
      13.60000000      90.00000000      45.00000000      51.70748311       1.77922559
      13.70000000      90.00000000      45.00000000      51.70752807       1.77922714
      13.80000000      90.00000000      45.00000000      51.70757304       1.77922869
      13.90000000      90.00000000      45.00000000      51.70761801       1.77923023
      14.00000000      90.00000000      45.00000000      51.70766299       1.77923178
      14.10000000      90.00000000      45.00000000      51.70770798       1.77923333
      14.20000000      90.00000000      45.00000000      51.70775297       1.77923488
      14.30000000      90.00000000      45.00000000      51.70779796       1.77923643
      14.40000000      90.00000000      45.00000000      51.70784296       1.77923797
      14.50000000      90.00000000      45.00000000      51.70788797       1.77923952
      14.60000000      90.00000000      45.00000000      51.70793298       1.77924107
      14.70000000      90.00000000      45.00000000      51.70797799       1.77924262
      14.80000000      90.00000000      45.00000000      51.70802301       1.77924417
      14.90000000      90.00000000      45.00000000      51.70806804       1.77924572
      15.00000000      90.00000000      45.00000000      51.70811307       1.77924727
      15.10000000      90.00000000      45.00000000      51.70815811       1.77924882
      15.20000000      90.00000000      45.00000000      51.70820315       1.77925037
      15.30000000      90.00000000      45.00000000      51.70824820       1.77925192
      15.40000000      90.00000000      45.00000000      51.70829325       1.77925347
      15.50000000      90.00000000      45.00000000      51.70833831       1.77925502
      15.60000000      90.00000000      45.00000000      51.70838337       1.77925657
      15.70000000      90.00000000      45.00000000      51.70842844       1.77925812
      15.80000000      90.00000000      45.00000000      51.70847352       1.77925967
      15.90000000      90.00000000      45.00000000      51.70851860       1.77926122
      16.00000000      90.00000000      45.00000000      51.70856368       1.77926277
      16.10000000      90.00000000      45.00000000      51.70860877       1.77926433
      16.20000000      90.00000000      45.00000000      51.70865387       1.77926588
      16.30000000      90.00000000      45.00000000      51.70869897       1.77926743
      16.40000000      90.00000000      45.00000000      51.70874408       1.77926898
      16.50000000      90.00000000      45.00000000      51.70878919       1.77927053
      16.60000000      90.00000000      45.00000000      51.70883431       1.77927209
      16.70000000      90.00000000      45.00000000      51.70887943       1.77927364
      16.80000000      90.00000000      45.00000000      51.70892456       1.77927519
      16.90000000      90.00000000      45.00000000      51.70896969       1.77927674
      17.00000000      90.00000000      45.00000000      51.70901483       1.77927830
      17.10000000      90.00000000      45.00000000      51.70905998       1.77927985
      17.20000000      90.00000000      45.00000000      51.70910513       1.77928140
      17.30000000      90.00000000      45.00000000      51.70915028       1.77928296
      17.40000000      90.00000000      45.00000000      51.70919544       1.77928451
      17.50000000      90.00000000      45.00000000      51.70924061       1.77928607
      17.60000000      90.00000000      45.00000000      51.70928578       1.77928762
      17.70000000      90.00000000      45.00000000      51.70933096       1.77928918
      17.80000000      90.00000000      45.00000000      51.70937614       1.77929073
      17.90000000      90.00000000      45.00000000      51.70942132       1.77929229
      18.00000000      90.00000000      45.00000000      51.70946652       1.77929384
      18.10000000      90.00000000      45.00000000      51.70951172       1.77929540
      18.20000000      90.00000000      45.00000000      51.70955692       1.77929695
      18.30000000      90.00000000      45.00000000      51.70960213       1.77929851
      18.40000000      90.00000000      45.00000000      51.70964734       1.77930006
      18.50000000      90.00000000      45.00000000      51.70969256       1.77930162
      18.60000000      90.00000000      45.00000000      51.70973779       1.77930317
      18.70000000      90.00000000      45.00000000      51.70978302       1.77930473
      18.80000000      90.00000000      45.00000000      51.70982825       1.77930629
      18.90000000      90.00000000      45.00000000      51.70987349       1.77930784
      19.00000000      90.00000000      45.00000000      51.70991874       1.77930940
      19.10000000      90.00000000      45.00000000      51.70996399       1.77931096
      19.20000000      90.00000000      45.00000000      51.71000925       1.77931252
      19.30000000      90.00000000      45.00000000      51.71005451       1.77931407
      19.40000000      90.00000000      45.00000000      51.71009978       1.77931563
      19.50000000      90.00000000      45.00000000      51.71014505       1.77931719
      19.60000000      90.00000000      45.00000000      51.71019033       1.77931875
      19.70000000      90.00000000      45.00000000      51.71023562       1.77932030
      19.80000000      90.00000000      45.00000000      51.71028091       1.77932186
      19.90000000      90.00000000      45.00000000      51.71032620       1.77932342
      20.00000000      90.00000000      45.00000000      51.71037150       1.77932498
      20.10000000      90.00000000      45.00000000      51.71041681       1.77932654
      20.20000000      90.00000000      45.00000000      51.71046212       1.77932810
      20.30000000      90.00000000      45.00000000      51.71050744       1.77932966
      20.40000000      90.00000000      45.00000000      51.71055276       1.77933122
      20.50000000      90.00000000      45.00000000      51.71059808       1.77933278
      20.60000000      90.00000000      45.00000000      51.71064342       1.77933434
      20.70000000      90.00000000      45.00000000      51.71068876       1.77933590
      20.80000000      90.00000000      45.00000000      51.71073410       1.77933746
      20.90000000      90.00000000      45.00000000      51.71077945       1.77933902
      21.00000000      90.00000000      45.00000000      51.71082480       1.77934058
      21.10000000      90.00000000      45.00000000      51.71087016       1.77934214
      21.20000000      90.00000000      45.00000000      51.71091553       1.77934370
      21.30000000      90.00000000      45.00000000      51.71096090       1.77934526
      21.40000000      90.00000000      45.00000000      51.71100627       1.77934682
      21.50000000      90.00000000      45.00000000      51.71105166       1.77934838
      21.60000000      90.00000000      45.00000000      51.71109704       1.77934995
      21.70000000      90.00000000      45.00000000      51.71114244       1.77935151
      21.80000000      90.00000000      45.00000000      51.71118783       1.77935307
      21.90000000      90.00000000      45.00000000      51.71123324       1.77935463
      22.00000000      90.00000000      45.00000000      51.71127865       1.77935619
      22.10000000      90.00000000      45.00000000      51.71132406       1.77935776
      22.20000000      90.00000000      45.00000000      51.71136948       1.77935932
      22.30000000      90.00000000      45.00000000      51.71141490       1.77936088
      22.40000000      90.00000000      45.00000000      51.71146033       1.77936245
      22.50000000      90.00000000      45.00000000      51.71150577       1.77936401
      22.60000000      90.00000000      45.00000000      51.71155121       1.77936557
      22.70000000      90.00000000      45.00000000      51.71159666       1.77936714
      22.80000000      90.00000000      45.00000000      51.71164211       1.77936870
      22.90000000      90.00000000      45.00000000      51.71168757       1.77937027
      23.00000000      90.00000000      45.00000000      51.71173303       1.77937183
