 # applied field (T), theta (degree), phi (degree), abs for RE 3-4
     0.00000    90.00000   220.14474     3.61500    90.00000   229.85526     3.61500
     0.10000    90.00000   220.14457     3.61499    90.00000   229.85543     3.61499
     0.20000    90.00000   220.14440     3.61499    90.00000   229.85560     3.61499
     0.30000    90.00000   220.14423     3.61498    90.00000   229.85577     3.61498
     0.40000    90.00000   220.14407     3.61497    90.00000   229.85593     3.61497
     0.50000    90.00000   220.14390     3.61497    90.00000   229.85610     3.61497
     0.60000    90.00000   220.14373     3.61496    90.00000   229.85627     3.61496
     0.70000    90.00000   220.14356     3.61495    90.00000   229.85644     3.61495
     0.80000    90.00000   220.14340     3.61495    90.00000   229.85660     3.61495
     0.90000    90.00000   220.14323     3.61494    90.00000   229.85677     3.61494
     1.00000    90.00000   220.14306     3.61493    90.00000   229.85694     3.61493
     1.10000    90.00000   220.14289     3.61493    90.00000   229.85711     3.61493
     1.20000    90.00000   220.14273     3.61492    90.00000   229.85727     3.61492
     1.30000    90.00000   220.14256     3.61491    90.00000   229.85744     3.61491
     1.40000    90.00000   220.14239     3.61491    90.00000   229.85761     3.61491
     1.50000    90.00000   220.14222     3.61490    90.00000   229.85778     3.61490
     1.60000    90.00000   220.14206     3.61489    90.00000   229.85794     3.61489
     1.70000    90.00000   220.14189     3.61489    90.00000   229.85811     3.61489
     1.80000    90.00000   220.14172     3.61488    90.00000   229.85828     3.61488
     1.90000    90.00000   220.14155     3.61487    90.00000   229.85845     3.61487
     2.00000    90.00000   220.14138     3.61487    90.00000   229.85862     3.61487
     2.10000    90.00000   220.14122     3.61486    90.00000   229.85878     3.61486
     2.20000    90.00000   220.14105     3.61485    90.00000   229.85895     3.61485
     2.30000    90.00000   220.14088     3.61485    90.00000   229.85912     3.61485
     2.40000    90.00000   220.14071     3.61484    90.00000   229.85929     3.61484
     2.50000    90.00000   220.14055     3.61483    90.00000   229.85945     3.61483
     2.60000    90.00000   220.14038     3.61483    90.00000   229.85962     3.61483
     2.70000    90.00000   220.14021     3.61482    90.00000   229.85979     3.61482
     2.80000    90.00000   220.14004     3.61481    90.00000   229.85996     3.61481
     2.90000    90.00000   220.13987     3.61481    90.00000   229.86013     3.61481
     3.00000    90.00000   220.13971     3.61480    90.00000   229.86029     3.61480
     3.10000    90.00000   220.13954     3.61479    90.00000   229.86046     3.61479
     3.20000    90.00000   220.13937     3.61479    90.00000   229.86063     3.61479
     3.30000    90.00000   220.13920     3.61478    90.00000   229.86080     3.61478
     3.40000    90.00000   220.13904     3.61477    90.00000   229.86096     3.61477
     3.50000    90.00000   220.13887     3.61476    90.00000   229.86113     3.61476
     3.60000    90.00000   220.13870     3.61476    90.00000   229.86130     3.61476
     3.70000    90.00000   220.13853     3.61475    90.00000   229.86147     3.61475
     3.80000    90.00000   220.13836     3.61474    90.00000   229.86164     3.61474
     3.90000    90.00000   220.13820     3.61474    90.00000   229.86180     3.61474
     4.00000    90.00000   220.13803     3.61473    90.00000   229.86197     3.61473
     4.10000    90.00000   220.13786     3.61472    90.00000   229.86214     3.61472
     4.20000    90.00000   220.13769     3.61472    90.00000   229.86231     3.61472
     4.30000    90.00000   220.13752     3.61471    90.00000   229.86248     3.61471
     4.40000    90.00000   220.13736     3.61470    90.00000   229.86264     3.61470
     4.50000    90.00000   220.13719     3.61469    90.00000   229.86281     3.61469
     4.60000    90.00000   220.13702     3.61469    90.00000   229.86298     3.61469
     4.70000    90.00000   220.13685     3.61468    90.00000   229.86315     3.61468
     4.80000    90.00000   220.13668     3.61467    90.00000   229.86332     3.61467
     4.90000    90.00000   220.13652     3.61466    90.00000   229.86348     3.61466
     5.00000    90.00000   220.13635     3.61466    90.00000   229.86365     3.61466
     5.10000    90.00000   220.13618     3.61465    90.00000   229.86382     3.61465
     5.20000    90.00000   220.13601     3.61464    90.00000   229.86399     3.61464
     5.30000    90.00000   220.13584     3.61464    90.00000   229.86416     3.61464
     5.40000    90.00000   220.13567     3.61463    90.00000   229.86433     3.61463
     5.50000    90.00000   220.13551     3.61462    90.00000   229.86449     3.61462
     5.60000    90.00000   220.13534     3.61461    90.00000   229.86466     3.61461
     5.70000    90.00000   220.13517     3.61461    90.00000   229.86483     3.61461
     5.80000    90.00000   220.13500     3.61460    90.00000   229.86500     3.61460
     5.90000    90.00000   220.13483     3.61459    90.00000   229.86517     3.61459
     6.00000    90.00000   220.13467     3.61458    90.00000   229.86533     3.61458
     6.10000    90.00000   220.13450     3.61458    90.00000   229.86550     3.61458
     6.20000    90.00000   220.13433     3.61457    90.00000   229.86567     3.61457
     6.30000    90.00000   220.13416     3.61456    90.00000   229.86584     3.61456
     6.40000    90.00000   220.13399     3.61455    90.00000   229.86601     3.61455
     6.50000    90.00000   220.13382     3.61455    90.00000   229.86618     3.61455
     6.60000    90.00000   220.13366     3.61454    90.00000   229.86634     3.61454
     6.70000    90.00000   220.13349     3.61453    90.00000   229.86651     3.61453
     6.80000    90.00000   220.13332     3.61452    90.00000   229.86668     3.61452
     6.90000    90.00000   220.13315     3.61452    90.00000   229.86685     3.61452
     7.00000    90.00000   220.13298     3.61451    90.00000   229.86702     3.61451
     7.10000    90.00000   220.13281     3.61450    90.00000   229.86719     3.61450
     7.20000    90.00000   220.13265     3.61449    90.00000   229.86735     3.61449
     7.30000    90.00000   220.13248     3.61448    90.00000   229.86752     3.61448
     7.40000    90.00000   220.13231     3.61448    90.00000   229.86769     3.61448
     7.50000    90.00000   220.13214     3.61447    90.00000   229.86786     3.61447
     7.60000    90.00000   220.13197     3.61446    90.00000   229.86803     3.61446
     7.70000    90.00000   220.13180     3.61445    90.00000   229.86820     3.61445
     7.80000    90.00000   220.13163     3.61445    90.00000   229.86837     3.61445
     7.90000    90.00000   220.13147     3.61444    90.00000   229.86853     3.61444
     8.00000    90.00000   220.13130     3.61443    90.00000   229.86870     3.61443
     8.10000    90.00000   220.13113     3.61442    90.00000   229.86887     3.61442
     8.20000    90.00000   220.13096     3.61441    90.00000   229.86904     3.61441
     8.30000    90.00000   220.13079     3.61441    90.00000   229.86921     3.61441
     8.40000    90.00000   220.13062     3.61440    90.00000   229.86938     3.61440
     8.50000    90.00000   220.13045     3.61439    90.00000   229.86955     3.61439
     8.60000    90.00000   220.13029     3.61438    90.00000   229.86971     3.61438
     8.70000    90.00000   220.13012     3.61437    90.00000   229.86988     3.61437
     8.80000    90.00000   220.12995     3.61437    90.00000   229.87005     3.61437
     8.90000    90.00000   220.12978     3.61436    90.00000   229.87022     3.61436
     9.00000    90.00000   220.12961     3.61435    90.00000   229.87039     3.61435
     9.10000    90.00000   220.12944     3.61434    90.00000   229.87056     3.61434
     9.20000    90.00000   220.12927     3.61433    90.00000   229.87073     3.61433
     9.30000    90.00000   220.12910     3.61433    90.00000   229.87090     3.61433
     9.40000    90.00000   220.12894     3.61432    90.00000   229.87106     3.61432
     9.50000    90.00000   220.12877     3.61431    90.00000   229.87123     3.61431
     9.60000    90.00000   220.12860     3.61430    90.00000   229.87140     3.61430
     9.70000    90.00000   220.12843     3.61429    90.00000   229.87157     3.61429
     9.80000    90.00000   220.12826     3.61429    90.00000   229.87174     3.61429
     9.90000    90.00000   220.12809     3.61428    90.00000   229.87191     3.61428
    10.00000    90.00000   220.12792     3.61427    90.00000   229.87208     3.61427
    10.10000    90.00000   220.12775     3.61426    90.00000   229.87225     3.61426
    10.20000    90.00000   220.12759     3.61425    90.00000   229.87241     3.61425
    10.30000    90.00000   220.12742     3.61424    90.00000   229.87258     3.61424
    10.40000    90.00000   220.12725     3.61424    90.00000   229.87275     3.61424
    10.50000    90.00000   220.12708     3.61423    90.00000   229.87292     3.61423
    10.60000    90.00000   220.12691     3.61422    90.00000   229.87309     3.61422
    10.70000    90.00000   220.12674     3.61421    90.00000   229.87326     3.61421
    10.80000    90.00000   220.12657     3.61420    90.00000   229.87343     3.61420
    10.90000    90.00000   220.12640     3.61419    90.00000   229.87360     3.61419
    11.00000    90.00000   220.12623     3.61419    90.00000   229.87377     3.61419
    11.10000    90.00000   220.12607     3.61418    90.00000   229.87393     3.61418
    11.20000    90.00000   220.12590     3.61417    90.00000   229.87410     3.61417
    11.30000    90.00000   220.12573     3.61416    90.00000   229.87427     3.61416
    11.40000    90.00000   220.12556     3.61415    90.00000   229.87444     3.61415
    11.50000    90.00000   220.12539     3.61414    90.00000   229.87461     3.61414
    11.60000    90.00000   220.12522     3.61413    90.00000   229.87478     3.61413
    11.70000    90.00000   220.12505     3.61413    90.00000   229.87495     3.61413
    11.80000    90.00000   220.12488     3.61412    90.00000   229.87512     3.61412
    11.90000    90.00000   220.12471     3.61411    90.00000   229.87529     3.61411
    12.00000    90.00000   220.12454     3.61410    90.00000   229.87546     3.61410
    12.10000    90.00000   220.12438     3.61409    90.00000   229.87562     3.61409
    12.20000    90.00000   220.12421     3.61408    90.00000   229.87579     3.61408
    12.30000    90.00000   220.12404     3.61407    90.00000   229.87596     3.61407
    12.40000    90.00000   220.12387     3.61407    90.00000   229.87613     3.61407
    12.50000    90.00000   220.12370     3.61406    90.00000   229.87630     3.61406
    12.60000    90.00000   220.12353     3.61405    90.00000   229.87647     3.61405
    12.70000    90.00000   220.12336     3.61404    90.00000   229.87664     3.61404
    12.80000    90.00000   220.12319     3.61403    90.00000   229.87681     3.61403
    12.90000    90.00000   220.12302     3.61402    90.00000   229.87698     3.61402
    13.00000    90.00000   220.12285     3.61401    90.00000   229.87715     3.61401
    13.10000    90.00000   220.12268     3.61400    90.00000   229.87732     3.61400
    13.20000    90.00000   220.12251     3.61400    90.00000   229.87749     3.61400
    13.30000    90.00000   220.12234     3.61399    90.00000   229.87766     3.61399
    13.40000    90.00000   220.12218     3.61398    90.00000   229.87782     3.61398
    13.50000    90.00000   220.12201     3.61397    90.00000   229.87799     3.61397
    13.60000    90.00000   220.12184     3.61396    90.00000   229.87816     3.61396
    13.70000    90.00000   220.12167     3.61395    90.00000   229.87833     3.61395
    13.80000    90.00000   220.12150     3.61394    90.00000   229.87850     3.61394
    13.90000    90.00000   220.12133     3.61393    90.00000   229.87867     3.61393
    14.00000    90.00000   220.12116     3.61392    90.00000   229.87884     3.61392
    14.10000    90.00000   220.12099     3.61392    90.00000   229.87901     3.61392
    14.20000    90.00000   220.12082     3.61391    90.00000   229.87918     3.61391
    14.30000    90.00000   220.12065     3.61390    90.00000   229.87935     3.61390
    14.40000    90.00000   220.12048     3.61389    90.00000   229.87952     3.61389
    14.50000    90.00000   220.12031     3.61388    90.00000   229.87969     3.61388
    14.60000    90.00000   220.12014     3.61387    90.00000   229.87986     3.61387
    14.70000    90.00000   220.11997     3.61386    90.00000   229.88003     3.61386
    14.80000    90.00000   220.11980     3.61385    90.00000   229.88020     3.61385
    14.90000    90.00000   220.11963     3.61384    90.00000   229.88037     3.61384
    15.00000    90.00000   220.11946     3.61383    90.00000   229.88054     3.61383
    15.10000    90.00000   220.11929     3.61382    90.00000   229.88071     3.61382
    15.20000    90.00000   220.11912     3.61382    90.00000   229.88088     3.61382
    15.30000    90.00000   220.11896     3.61381    90.00000   229.88104     3.61381
    15.40000    90.00000   220.11879     3.61380    90.00000   229.88121     3.61380
    15.50000    90.00000   220.11862     3.61379    90.00000   229.88138     3.61379
    15.60000    90.00000   220.11845     3.61378    90.00000   229.88155     3.61378
    15.70000    90.00000   220.11828     3.61377    90.00000   229.88172     3.61377
    15.80000    90.00000   220.11811     3.61376    90.00000   229.88189     3.61376
    15.90000    90.00000   220.11794     3.61375    90.00000   229.88206     3.61375
    16.00000    90.00000   220.11777     3.61374    90.00000   229.88223     3.61374
    16.10000    90.00000   220.11760     3.61373    90.00000   229.88240     3.61373
    16.20000    90.00000   220.11743     3.61372    90.00000   229.88257     3.61372
    16.30000    90.00000   220.11726     3.61371    90.00000   229.88274     3.61371
    16.40000    90.00000   220.11709     3.61370    90.00000   229.88291     3.61370
    16.50000    90.00000   220.11692     3.61369    90.00000   229.88308     3.61369
    16.60000    90.00000   220.11675     3.61368    90.00000   229.88325     3.61368
    16.70000    90.00000   220.11658     3.61367    90.00000   229.88342     3.61367
    16.80000    90.00000   220.11641     3.61367    90.00000   229.88359     3.61367
    16.90000    90.00000   220.11624     3.61366    90.00000   229.88376     3.61366
    17.00000    90.00000   220.11607     3.61365    90.00000   229.88393     3.61365
    17.10000    90.00000   220.11590     3.61364    90.00000   229.88410     3.61364
    17.20000    90.00000   220.11573     3.61363    90.00000   229.88427     3.61363
    17.30000    90.00000   220.11556     3.61362    90.00000   229.88444     3.61362
    17.40000    90.00000   220.11539     3.61361    90.00000   229.88461     3.61361
    17.50000    90.00000   220.11522     3.61360    90.00000   229.88478     3.61360
    17.60000    90.00000   220.11505     3.61359    90.00000   229.88495     3.61359
    17.70000    90.00000   220.11488     3.61358    90.00000   229.88512     3.61358
    17.80000    90.00000   220.11471     3.61357    90.00000   229.88529     3.61357
    17.90000    90.00000   220.11454     3.61356    90.00000   229.88546     3.61356
    18.00000    90.00000   220.11437     3.61355    90.00000   229.88563     3.61355
    18.10000    90.00000   220.11420     3.61354    90.00000   229.88580     3.61354
    18.20000    90.00000   220.11403     3.61353    90.00000   229.88597     3.61353
    18.30000    90.00000   220.11386     3.61352    90.00000   229.88614     3.61352
    18.40000    90.00000   220.11369     3.61351    90.00000   229.88631     3.61351
    18.50000    90.00000   220.11352     3.61350    90.00000   229.88648     3.61350
    18.60000    90.00000   220.11335     3.61349    90.00000   229.88665     3.61349
    18.70000    90.00000   220.11318     3.61348    90.00000   229.88682     3.61348
    18.80000    90.00000   220.11301     3.61347    90.00000   229.88699     3.61347
    18.90000    90.00000   220.11284     3.61346    90.00000   229.88716     3.61346
    19.00000    90.00000   220.11267     3.61345    90.00000   229.88733     3.61345
    19.10000    90.00000   220.11250     3.61344    90.00000   229.88750     3.61344
    19.20000    90.00000   220.11233     3.61343    90.00000   229.88767     3.61343
    19.30000    90.00000   220.11216     3.61342    90.00000   229.88784     3.61342
    19.40000    90.00000   220.11199     3.61341    90.00000   229.88801     3.61341
    19.50000    90.00000   220.11182     3.61340    90.00000   229.88818     3.61340
    19.60000    90.00000   220.11165     3.61339    90.00000   229.88835     3.61339
    19.70000    90.00000   220.11148     3.61338    90.00000   229.88852     3.61338
    19.80000    90.00000   220.11131     3.61337    90.00000   229.88869     3.61337
    19.90000    90.00000   220.11114     3.61336    90.00000   229.88886     3.61336
    20.00000    90.00000   220.11097     3.61335    90.00000   229.88903     3.61335
    20.10000    90.00000   220.11080     3.61334    90.00000   229.88920     3.61334
    20.20000    90.00000   220.11063     3.61333    90.00000   229.88937     3.61333
    20.30000    90.00000   220.11046     3.61332    90.00000   229.88954     3.61332
    20.40000    90.00000   220.11029     3.61331    90.00000   229.88971     3.61331
    20.50000    90.00000   220.11011     3.61330    90.00000   229.88989     3.61330
    20.60000    90.00000   220.10994     3.61329    90.00000   229.89006     3.61329
    20.70000    90.00000   220.10977     3.61328    90.00000   229.89023     3.61328
    20.80000    90.00000   220.10960     3.61327    90.00000   229.89040     3.61327
    20.90000    90.00000   220.10943     3.61326    90.00000   229.89057     3.61326
    21.00000    90.00000   220.10926     3.61325    90.00000   229.89074     3.61325
    21.10000    90.00000   220.10909     3.61324    90.00000   229.89091     3.61324
    21.20000    90.00000   220.10892     3.61323    90.00000   229.89108     3.61323
    21.30000    90.00000   220.10875     3.61322    90.00000   229.89125     3.61322
    21.40000    90.00000   220.10858     3.61321    90.00000   229.89142     3.61321
    21.50000    90.00000   220.10841     3.61320    90.00000   229.89159     3.61320
    21.60000    90.00000   220.10824     3.61319    90.00000   229.89176     3.61319
    21.70000    90.00000   220.10807     3.61318    90.00000   229.89193     3.61318
    21.80000    90.00000   220.10790     3.61316    90.00000   229.89210     3.61316
    21.90000    90.00000   220.10773     3.61315    90.00000   229.89227     3.61315
    22.00000    90.00000   220.10756     3.61314    90.00000   229.89244     3.61314
    22.10000    90.00000   220.10739     3.61313    90.00000   229.89261     3.61313
    22.20000    90.00000   220.10722     3.61312    90.00000   229.89278     3.61312
    22.30000    90.00000   220.10704     3.61311    90.00000   229.89296     3.61311
    22.40000    90.00000   220.10687     3.61310    90.00000   229.89313     3.61310
    22.50000    90.00000   220.10670     3.61309    90.00000   229.89330     3.61309
    22.60000    90.00000   220.10653     3.61308    90.00000   229.89347     3.61308
    22.70000    90.00000   220.10636     3.61307    90.00000   229.89364     3.61307
    22.80000    90.00000   220.10619     3.61306    90.00000   229.89381     3.61306
    22.90000    90.00000   220.10602     3.61305    90.00000   229.89398     3.61305
    23.00000    90.00000   220.10585     3.61304    90.00000   229.89415     3.61304
    23.10000    90.00000   220.10568     3.61303    90.00000   229.89432     3.61303
    23.20000    90.00000   220.10551     3.61302    90.00000   229.89449     3.61302
    23.30000    90.00000   220.10534     3.61301    90.00000   229.89466     3.61301
