 # applied field (T), theta (degree), phi (degree), abs for RE 3-4
     0.00000     0.40003   135.00000     3.45548     0.40003    45.00000     3.45548
     0.10000     1.06505    67.08167     3.45580     1.43829    45.00000     3.45581
     0.20000     2.01443    56.47344     3.45597     2.47648    45.00000     3.45604
     0.30000     2.98892    52.70949     3.45598     3.51474    45.00000     3.45616
     0.40000     3.97062    50.79893     3.45583     4.55319    45.00000     3.45619
     0.50000     5.00756    49.59715     3.45547     5.64651    45.00000     3.45611
     0.60000     5.99517    48.83958     3.45496     6.68581    45.00000     3.45594
     0.70000     6.98467    48.29531     3.45426     7.72572    45.00000     3.45568
     0.80000     8.02799    47.86645     3.45332     8.82098    45.00000     3.45530
     0.90000     9.07324    47.53530     3.45217     9.91719    45.00000     3.45483
     1.00000    10.06822    47.28358     3.45087    10.95974    45.00000     3.45430
     1.10000    11.11740    47.06653     3.44929    12.05816    45.00000     3.45365
     1.20000    12.22121    46.87797     3.44738    13.21276    45.00000     3.45288
     1.30000    13.27490    46.72681     3.44532    14.31396    45.00000     3.45207
     1.40000    14.38366    46.59123     3.44291    15.47171    45.00000     3.45114
     1.50000    15.49514    46.47436     3.44022    16.63123    45.00000     3.45013
     1.60000    16.60944    46.37249     3.43726    17.79261    45.00000     3.44905
     1.70000    17.77982    46.27880     3.43387    19.01123    45.00000     3.44786
     1.80000    18.95357    46.19603     3.43017    20.23205    45.00000     3.44660
     1.90000    20.18427    46.11914     3.42597    21.51066    45.00000     3.44523
     2.00000    21.41893    46.05044     3.42144    22.79179    45.00000     3.44381
     2.10000    22.71152    45.98606     3.41635    24.13124    45.00000     3.44228
     2.20000    24.00876    45.92796     3.41089    25.47351    45.00000     3.44072
     2.30000    25.36504    45.87311     3.40483    26.87458    45.00000     3.43907
     2.40000    26.72673    45.82318     3.39838    28.27869    45.00000     3.43740
     2.50000    28.20344    45.77399     3.39099    29.79827    45.00000     3.43558
     2.60000    29.74190    45.72740     3.38290    31.37764    45.00000     3.43370
     2.70000    31.28795    45.68468     3.37438    32.96058    45.00000     3.43184
     2.80000    32.95296    45.64261     3.36482    34.66019    45.00000     3.42987
     2.90000    34.73911    45.60135     3.35418    36.47703    45.00000     3.42782
     3.00000    36.59254    45.56217     3.34279    38.35471    45.00000     3.42577
     3.10000    38.62804    45.52278     3.32998    40.40726    45.00000     3.42362
     3.20000    40.79253    45.48445     3.31616    42.57818    45.00000     3.42146
     3.30000    43.14653    45.44632     3.30105    44.92480    45.00000     3.41926
     3.40000    45.75259    45.40773     3.28445    47.50468    45.00000     3.41703
     3.50000    48.67543    45.36827     3.26631    50.37544    45.00000     3.41475
     3.60000    52.10042    45.32626     3.24609    53.70958    45.00000     3.41236
     3.70000    56.21960    45.28060     3.22381    57.67980    45.00000     3.40982
     3.80000    61.41219    45.22888     3.19963    62.63132    45.00000     3.40696
     3.90000    68.86304    45.16273     3.17370    69.65919    45.00000     3.40308
     4.00000    90.00000    45.00000     3.15874    89.44057    45.00000     3.38949
     4.10000    90.00000    45.00000     3.15886    89.44058    45.00000     3.38960
     4.20000    90.00000    45.00000     3.15899    89.44059    45.00000     3.38972
     4.30000    90.00000    45.00000     3.15912    89.44059    45.00000     3.38983
     4.40000    90.00000    45.00000     3.15925    89.44060    45.00000     3.38995
     4.50000    90.00000    45.00000     3.15937    89.44061    45.00000     3.39006
     4.60000    90.00000    45.00000     3.15950    89.44062    45.00000     3.39017
     4.70000    90.00000    45.00000     3.15963    89.44063    45.00000     3.39029
     4.80000    90.00000    45.00000     3.15975    89.44064    45.00000     3.39040
     4.90000    90.00000    45.00000     3.15988    89.44065    45.00000     3.39052
     5.00000    90.00000    45.00000     3.16001    89.44065    45.00000     3.39063
     5.10000    90.00000    45.00000     3.16014    89.44066    45.00000     3.39075
     5.20000    90.00000    45.00000     3.16026    89.44067    45.00000     3.39086
     5.30000    90.00000    45.00000     3.16039    89.44068    45.00000     3.39097
     5.40000    90.00000    45.00000     3.16052    89.44069    45.00000     3.39109
     5.50000    90.00000    45.00000     3.16064    89.44070    45.00000     3.39120
     5.60000    90.00000    45.00000     3.16077    89.44070    45.00000     3.39132
     5.70000    90.00000    45.00000     3.16090    89.44071    45.00000     3.39143
     5.80000    90.00000    45.00000     3.16103    89.44072    45.00000     3.39155
     5.90000    90.00000    45.00000     3.16115    89.44073    45.00000     3.39166
     6.00000    90.00000    45.00000     3.16128    89.44074    45.00000     3.39177
     6.10000    90.00000    45.00000     3.16141    89.44075    45.00000     3.39189
     6.20000    90.00000    45.00000     3.16153    89.44076    45.00000     3.39200
     6.30000    90.00000    45.00000     3.16166    89.44076    45.00000     3.39212
     6.40000    90.00000    45.00000     3.16179    89.44077    45.00000     3.39223
     6.50000    90.00000    45.00000     3.16191    89.44078    45.00000     3.39234
     6.60000    90.00000    45.00000     3.16204    89.44079    45.00000     3.39246
     6.70000    90.00000    45.00000     3.16217    89.44080    45.00000     3.39257
     6.80000    90.00000    45.00000     3.16229    89.44081    45.00000     3.39268
     6.90000    90.00000    45.00000     3.16242    89.44082    45.00000     3.39280
     7.00000    90.00000    45.00000     3.16255    89.44082    45.00000     3.39291
     7.10000    90.00000    45.00000     3.16267    89.44083    45.00000     3.39303
     7.20000    90.00000    45.00000     3.16280    89.44084    45.00000     3.39314
     7.30000    90.00000    45.00000     3.16293    89.44085    45.00000     3.39325
     7.40000    90.00000    45.00000     3.16305    89.44086    45.00000     3.39337
     7.50000    90.00000    45.00000     3.16318    89.44087    45.00000     3.39348
     7.60000    90.00000    45.00000     3.16330    89.44088    45.00000     3.39359
     7.70000    90.00000    45.00000     3.16343    89.44088    45.00000     3.39371
     7.80000    90.00000    45.00000     3.16356    89.44089    45.00000     3.39382
     7.90000    90.00000    45.00000     3.16368    89.44090    45.00000     3.39393
     8.00000    90.00000    45.00000     3.16381    89.44091    45.00000     3.39405
     8.10000    90.00000    45.00000     3.16394    89.44092    45.00000     3.39416
     8.20000    90.00000    45.00000     3.16406    89.44093    45.00000     3.39427
     8.30000    90.00000    45.00000     3.16419    89.44094    45.00000     3.39439
     8.40000    90.00000    45.00000     3.16431    89.44094    45.00000     3.39450
     8.50000    90.00000    45.00000     3.16444    89.44095    45.00000     3.39461
     8.60000    90.00000    45.00000     3.16457    89.44096    45.00000     3.39473
     8.70000    90.00000    45.00000     3.16469    89.44097    45.00000     3.39484
     8.80000    90.00000    45.00000     3.16482    89.44098    45.00000     3.39495
     8.90000    90.00000    45.00000     3.16494    89.44099    45.00000     3.39507
     9.00000    90.00000    45.00000     3.16507    89.44100    45.00000     3.39518
     9.10000    90.00000    45.00000     3.16520    89.44100    45.00000     3.39529
     9.20000    90.00000    45.00000     3.16532    89.44101    45.00000     3.39541
     9.30000    90.00000    45.00000     3.16545    89.44102    45.00000     3.39552
     9.40000    90.00000    45.00000     3.16558    89.44103    45.00000     3.39563
     9.50000    90.00000    45.00000     3.16570    89.44104    45.00000     3.39574
     9.60000    90.00000    45.00000     3.16583    89.44105    45.00000     3.39586
     9.70000    90.00000    45.00000     3.16595    89.44106    45.00000     3.39597
     9.80000    90.00000    45.00000     3.16608    89.44106    45.00000     3.39608
     9.90000    90.00000    45.00000     3.16620    89.44107    45.00000     3.39620
    10.00000    90.00000    45.00000     3.16633    89.44108    45.00000     3.39631
    10.10000    90.00000    45.00000     3.16646    89.44109    45.00000     3.39642
    10.20000    90.00000    45.00000     3.16658    89.44110    45.00000     3.39653
    10.30000    90.00000    45.00000     3.16671    89.44111    45.00000     3.39665
    10.40000    90.00000    45.00000     3.16683    89.44112    45.00000     3.39676
    10.50000    90.00000    45.00000     3.16696    89.44112    45.00000     3.39687
    10.60000    90.00000    45.00000     3.16708    89.44113    45.00000     3.39698
    10.70000    90.00000    45.00000     3.16721    89.44114    45.00000     3.39710
    10.80000    90.00000    45.00000     3.16733    89.44115    45.00000     3.39721
    10.90000    90.00000    45.00000     3.16746    89.44116    45.00000     3.39732
    11.00000    90.00000    45.00000     3.16759    89.44117    45.00000     3.39743
    11.10000    90.00000    45.00000     3.16771    89.44118    45.00000     3.39755
    11.20000    90.00000    45.00000     3.16784    89.44118    45.00000     3.39766
    11.30000    90.00000    45.00000     3.16796    89.44119    45.00000     3.39777
    11.40000    90.00000    45.00000     3.16809    89.44120    45.00000     3.39788
    11.50000    90.00000    45.00000     3.16821    89.44121    45.00000     3.39800
    11.60000    90.00000    45.00000     3.16834    89.44122    45.00000     3.39811
    11.70000    90.00000    45.00000     3.16846    89.44123    45.00000     3.39822
    11.80000    90.00000    45.00000     3.16859    89.44124    45.00000     3.39833
    11.90000    90.00000    45.00000     3.16871    89.44124    45.00000     3.39845
    12.00000    90.00000    45.00000     3.16884    89.44125    45.00000     3.39856
    12.10000    90.00000    45.00000     3.16896    89.44126    45.00000     3.39867
    12.20000    90.00000    45.00000     3.16909    89.44127    45.00000     3.39878
    12.30000    90.00000    45.00000     3.16921    89.44128    45.00000     3.39889
    12.40000    90.00000    45.00000     3.16934    89.44129    45.00000     3.39901
    12.50000    90.00000    45.00000     3.16946    89.44130    45.00000     3.39912
    12.60000    90.00000    45.00000     3.16959    89.44130    45.00000     3.39923
    12.70000    90.00000    45.00000     3.16971    89.44131    45.00000     3.39934
    12.80000    90.00000    45.00000     3.16984    89.44132    45.00000     3.39945
    12.90000    90.00000    45.00000     3.16996    89.44133    45.00000     3.39957
    13.00000    90.00000    45.00000     3.17009    89.44134    45.00000     3.39968
    13.10000    90.00000    45.00000     3.17021    89.44135    45.00000     3.39979
    13.20000    90.00000    45.00000     3.17034    89.44136    45.00000     3.39990
    13.30000    90.00000    45.00000     3.17046    89.44136    45.00000     3.40001
    13.40000    90.00000    45.00000     3.17059    89.44137    45.00000     3.40012
    13.50000    90.00000    45.00000     3.17071    89.44138    45.00000     3.40024
    13.60000    90.00000    45.00000     3.17084    89.44139    45.00000     3.40035
    13.70000    90.00000    45.00000     3.17096    89.44140    45.00000     3.40046
    13.80000    90.00000    45.00000     3.17108    89.44141    45.00000     3.40057
    13.90000    90.00000    45.00000     3.17121    89.44142    45.00000     3.40068
    14.00000    90.00000    45.00000     3.17133    89.44143    45.00000     3.40079
    14.10000    90.00000    45.00000     3.17146    89.44143    45.00000     3.40091
    14.20000    90.00000    45.00000     3.17158    89.44144    45.00000     3.40102
    14.30000    90.00000    45.00000     3.17171    89.44145    45.00000     3.40113
    14.40000    90.00000    45.00000     3.17183    89.44146    45.00000     3.40124
    14.50000    90.00000    45.00000     3.17196    89.44147    45.00000     3.40135
    14.60000    90.00000    45.00000     3.17208    89.44148    45.00000     3.40146
    14.70000    90.00000    45.00000     3.17220    89.44149    45.00000     3.40157
    14.80000    90.00000    45.00000     3.17233    89.44149    45.00000     3.40169
    14.90000    90.00000    45.00000     3.17245    89.44150    45.00000     3.40180
    15.00000    90.00000    45.00000     3.17258    89.44151    45.00000     3.40191
    15.10000    90.00000    45.00000     3.17270    89.44152    45.00000     3.40202
    15.20000    90.00000    45.00000     3.17283    89.44153    45.00000     3.40213
    15.30000    90.00000    45.00000     3.17295    89.44154    45.00000     3.40224
    15.40000    90.00000    45.00000     3.17307    89.44155    45.00000     3.40235
    15.50000    90.00000    45.00000     3.17320    89.44155    45.00000     3.40246
    15.60000    90.00000    45.00000     3.17332    89.44156    45.00000     3.40257
    15.70000    90.00000    45.00000     3.17345    89.44157    45.00000     3.40269
    15.80000    90.00000    45.00000     3.17357    89.44158    45.00000     3.40280
    15.90000    90.00000    45.00000     3.17369    89.44159    45.00000     3.40291
    16.00000    90.00000    45.00000     3.17382    89.44160    45.00000     3.40302
    16.10000    90.00000    45.00000     3.17394    89.44161    45.00000     3.40313
    16.20000    90.00000    45.00000     3.17406    89.44161    45.00000     3.40324
    16.30000    90.00000    45.00000     3.17419    89.44162    45.00000     3.40335
    16.40000    90.00000    45.00000     3.17431    89.44163    45.00000     3.40346
    16.50000    90.00000    45.00000     3.17444    89.44164    45.00000     3.40357
    16.60000    90.00000    45.00000     3.17456    89.44165    45.00000     3.40368
    16.70000    90.00000    45.00000     3.17468    89.44166    45.00000     3.40379
    16.80000    90.00000    45.00000     3.17481    89.44167    45.00000     3.40390
    16.90000    90.00000    45.00000     3.17493    89.44168    45.00000     3.40402
    17.00000    90.00000    45.00000     3.17505    89.44168    45.00000     3.40413
    17.10000    90.00000    45.00000     3.17518    89.44169    45.00000     3.40424
    17.20000    90.00000    45.00000     3.17530    89.44170    45.00000     3.40435
    17.30000    90.00000    45.00000     3.17543    89.44171    45.00000     3.40446
    17.40000    90.00000    45.00000     3.17555    89.44172    45.00000     3.40457
    17.50000    90.00000    45.00000     3.17567    89.44173    45.00000     3.40468
    17.60000    90.00000    45.00000     3.17580    89.44174    45.00000     3.40479
    17.70000    90.00000    45.00000     3.17592    89.44174    45.00000     3.40490
    17.80000    90.00000    45.00000     3.17604    89.44175    45.00000     3.40501
    17.90000    90.00000    45.00000     3.17617    89.44176    45.00000     3.40512
    18.00000    90.00000    45.00000     3.17629    89.44177    45.00000     3.40523
    18.10000    90.00000    45.00000     3.17641    89.44178    45.00000     3.40534
    18.20000    90.00000    45.00000     3.17654    89.44179    45.00000     3.40545
    18.30000    90.00000    45.00000     3.17666    89.44180    45.00000     3.40556
    18.40000    90.00000    45.00000     3.17678    89.44180    45.00000     3.40567
    18.50000    90.00000    45.00000     3.17690    89.44181    45.00000     3.40578
    18.60000    90.00000    45.00000     3.17703    89.44182    45.00000     3.40589
    18.70000    90.00000    45.00000     3.17715    89.44183    45.00000     3.40600
    18.80000    90.00000    45.00000     3.17727    89.44184    45.00000     3.40611
    18.90000    90.00000    45.00000     3.17740    89.44185    45.00000     3.40622
    19.00000    90.00000    45.00000     3.17752    89.44186    45.00000     3.40633
    19.10000    90.00000    45.00000     3.17764    89.44187    45.00000     3.40644
    19.20000    90.00000    45.00000     3.17777    89.44187    45.00000     3.40655
    19.30000    90.00000    45.00000     3.17789    89.44188    45.00000     3.40666
    19.40000    90.00000    45.00000     3.17801    89.44189    45.00000     3.40677
    19.50000    90.00000    45.00000     3.17814    89.44190    45.00000     3.40688
    19.60000    90.00000    45.00000     3.17826    89.44191    45.00000     3.40699
    19.70000    90.00000    45.00000     3.17838    89.44192    45.00000     3.40710
    19.80000    90.00000    45.00000     3.17850    89.44193    45.00000     3.40721
    19.90000    90.00000    45.00000     3.17863    89.44193    45.00000     3.40732
    20.00000    90.00000    45.00000     3.17875    89.44194    45.00000     3.40743
    20.10000    90.00000    45.00000     3.17887    89.44195    45.00000     3.40754
    20.20000    90.00000    45.00000     3.17899    89.44196    45.00000     3.40765
    20.30000    90.00000    45.00000     3.17912    89.44197    45.00000     3.40776
    20.40000    90.00000    45.00000     3.17924    89.44198    45.00000     3.40787
    20.50000    90.00000    45.00000     3.17936    89.44199    45.00000     3.40798
    20.60000    90.00000    45.00000     3.17948    89.44200    45.00000     3.40809
    20.70000    90.00000    45.00000     3.17961    89.44200    45.00000     3.40820
    20.80000    90.00000    45.00000     3.17973    89.44201    45.00000     3.40831
    20.90000    90.00000    45.00000     3.17985    89.44202    45.00000     3.40841
    21.00000    90.00000    45.00000     3.17997    89.44203    45.00000     3.40852
    21.10000    90.00000    45.00000     3.18010    89.44204    45.00000     3.40863
    21.20000    90.00000    45.00000     3.18022    89.44205    45.00000     3.40874
    21.30000    90.00000    45.00000     3.18034    89.44206    45.00000     3.40885
    21.40000    90.00000    45.00000     3.18046    89.44206    45.00000     3.40896
    21.50000    90.00000    45.00000     3.18058    89.44207    45.00000     3.40907
    21.60000    90.00000    45.00000     3.18071    89.44208    45.00000     3.40918
    21.70000    90.00000    45.00000     3.18083    89.44209    45.00000     3.40929
    21.80000    90.00000    45.00000     3.18095    89.44210    45.00000     3.40940
    21.90000    90.00000    45.00000     3.18107    89.44211    45.00000     3.40951
    22.00000    90.00000    45.00000     3.18120    89.44212    45.00000     3.40962
    22.10000    90.00000    45.00000     3.18132    89.44213    45.00000     3.40973
    22.20000    90.00000    45.00000     3.18144    89.44213    45.00000     3.40983
    22.30000    90.00000    45.00000     3.18156    89.44214    45.00000     3.40994
    22.40000    90.00000    45.00000     3.18168    89.44215    45.00000     3.41005
    22.50000    90.00000    45.00000     3.18181    89.44216    45.00000     3.41016
    22.60000    90.00000    45.00000     3.18193    89.44217    45.00000     3.41027
    22.70000    90.00000    45.00000     3.18205    89.44218    45.00000     3.41038
    22.80000    90.00000    45.00000     3.18217    89.44219    45.00000     3.41049
    22.90000    90.00000    45.00000     3.18229    89.44219    45.00000     3.41060
    23.00000    90.00000    45.00000     3.18241    89.44220    45.00000     3.41070
    23.10000    90.00000    45.00000     3.18254    89.44221    45.00000     3.41081
    23.20000    90.00000    45.00000     3.18266    89.44222    45.00000     3.41092
    23.30000    90.00000    45.00000     3.18278    89.44223    45.00000     3.41103
