 # applied field (T), theta (degree), phi (degree), abs for RE 1-2
     0.00000    90.00000   225.41977     4.25226    90.00000   225.41977     4.25226
     0.10000    90.14463   225.41977     4.25226    90.14463   225.41977     4.25226
     0.20000    90.28927   224.58023     4.25225    90.28927   224.58023     4.25225
     0.30000    90.40475   225.41977     4.25224    90.40475   225.41977     4.25224
     0.40000    90.54938   225.41977     4.25222    90.54938   225.41977     4.25222
     0.50000    90.69402   224.58023     4.25220    90.69402   224.58023     4.25220
     0.60000    90.83865   225.41977     4.25217    90.83865   225.41977     4.25217
     0.70000    90.95413   225.41977     4.25214    90.95413   225.41977     4.25214
     0.80000    91.09877   224.58023     4.25209    91.09877   224.58023     4.25209
     0.90000    91.24340   224.58022     4.25205    91.24340   224.58022     4.25205
     1.00000    91.38804   225.41978     4.25200    91.38804   225.41978     4.25200
     1.10000    91.53267   224.58022     4.25194    91.53267   224.58022     4.25194
     1.20000    91.64815   224.58022     4.25189    91.64815   224.58022     4.25189
     1.30000    91.79279   224.58022     4.25182    91.79279   224.58022     4.25182
     1.40000    91.93742   225.41978     4.25174    91.93742   225.41978     4.25174
     1.50000    92.08205   224.58021     4.25166    92.08205   224.58021     4.25166
     1.60000    92.19754   224.58021     4.25159    92.19754   224.58021     4.25159
     1.70000    92.34217   224.58021     4.25150    92.34217   224.58021     4.25150
     1.80000    92.48680   224.58021     4.25140    92.48680   224.58021     4.25140
     1.90000    92.60229   225.41980     4.25132    92.60229   225.41980     4.25132
     2.00000    92.74692   225.41980     4.25121    92.74692   225.41980     4.25121
     2.10000    92.89155   225.41980     4.25110    92.89155   225.41980     4.25110
     2.20000    93.03619   224.58020     4.25098    93.03619   224.58020     4.25098
     2.30000    93.15167   225.41981     4.25088    93.15167   225.41981     4.25088
     2.40000    93.29631   224.58019     4.25075    93.29631   224.58019     4.25075
     2.50000    93.44093   225.00000     4.25062    93.44093   225.00000     4.25062
     2.60000    93.55642   225.00000     4.25050    93.55642   225.00000     4.25050
     2.70000    93.70105   225.00000     4.25036    93.70105   225.00000     4.25036
     2.80000    93.84569   225.00000     4.25020    93.84569   225.00000     4.25020
     2.90000    93.96117   225.00000     4.25008    93.96117   225.00000     4.25008
     3.00000    94.10581   225.00000     4.24991    94.10581   225.00000     4.24991
     3.10000    94.25044   225.00000     4.24974    94.25044   225.00000     4.24974
     3.20000    94.36593   225.00000     4.24960    94.36593   225.00000     4.24960
     3.30000    94.51056   225.00000     4.24942    94.51056   225.00000     4.24942
     3.40000    94.62605   225.00000     4.24927    94.62605   225.00000     4.24927
     3.50000    94.77069   225.00000     4.24908    94.77069   225.00000     4.24908
     3.60000    94.91532   225.00000     4.24889    94.91532   225.00000     4.24889
     3.70000    95.03081   225.00000     4.24872    95.03081   225.00000     4.24872
     3.80000    95.17545   225.00000     4.24852    95.17545   225.00000     4.24852
     3.90000    95.29095   224.57197     4.24834    95.29095   224.57197     4.24834
     4.00000    95.43559   225.42803     4.24812    95.43559   225.42803     4.24812
     4.10000    95.55108   224.57196     4.24794    95.55108   224.57196     4.24794
     4.20000    95.69572   225.42805     4.24772    95.69572   225.42805     4.24772
     4.30000    95.81121   224.57195     4.24753    95.81121   224.57195     4.24753
     4.40000    95.95585   224.57194     4.24729    95.95585   224.57194     4.24729
     4.50000    96.07135   225.42806     4.24709    96.07135   225.42806     4.24709
     4.60000    96.21599   224.57193     4.24684    96.21599   224.57193     4.24684
     4.70000    96.33149   224.57192     4.24663    96.33149   224.57192     4.24663
     4.80000    96.47614   224.57192     4.24637    96.47614   224.57192     4.24637
     4.90000    96.62077   225.00000     4.24610    96.62077   225.00000     4.24610
     5.00000    96.70712   225.00000     4.24593    96.70712   225.00000     4.24593
     5.10000    96.85177   225.00000     4.24565    96.85177   225.00000     4.24565
     5.20000    96.96728   225.00000     4.24542    96.96728   225.00000     4.24542
     5.30000    97.11193   225.00000     4.24513    97.11193   225.00000     4.24513
     5.40000    97.22744   225.00000     4.24490    97.22744   225.00000     4.24490
     5.50000    97.34294   225.00000     4.24465    97.34294   225.00000     4.24465
     5.60000    97.48760   225.00000     4.24435    97.48760   225.00000     4.24435
     5.70000    97.60311   225.00000     4.24409    97.60311   225.00000     4.24409
     5.80000    97.71863   225.00000     4.24384    97.71863   225.00000     4.24384
     5.90000    97.86331   225.43664     4.24351    97.86331   225.43664     4.24351
     6.00000    97.97882   224.56335     4.24325    97.97882   224.56335     4.24325
     6.10000    98.09434   224.56335     4.24298    98.09434   224.56335     4.24298
     6.20000    98.20986   224.56334     4.24271    98.20986   224.56334     4.24271
     6.30000    98.35454   225.43667     4.24236    98.35454   225.43667     4.24236
     6.40000    98.47006   224.56332     4.24208    98.47006   224.56332     4.24208
     6.50000    98.58559   225.43669     4.24179    98.58559   225.43669     4.24179
     6.60000    98.73026   225.00000     4.24143    98.73026   225.00000     4.24143
     6.70000    98.81664   225.00000     4.24121    98.81664   225.00000     4.24121
     6.80000    98.93218   225.00000     4.24091    98.93218   225.00000     4.24091
     6.90000    99.07687   225.00000     4.24053    99.07687   225.00000     4.24053
     7.00000    99.19241   225.00000     4.24022    99.19241   225.00000     4.24022
     7.10000    99.30796   225.00000     4.23991    99.30796   225.00000     4.23991
     7.20000    99.42351   225.00000     4.23959    99.42351   225.00000     4.23959
     7.30000    99.53906   225.00000     4.23927    99.53906   225.00000     4.23927
     7.40000    99.65463   224.55441     4.23894    99.65463   224.55441     4.23894
     7.50000    99.77019   225.44560     4.23861    99.77019   225.44560     4.23861
     7.60000    99.88575   224.55440     4.23827    99.88575   224.55440     4.23827
     7.70000   100.00132   225.44561     4.23793   100.00132   225.44561     4.23793
     7.80000   100.11689   225.44562     4.23759   100.11689   225.44562     4.23759
     7.90000   100.23247   224.55437     4.23724   100.23247   224.55437     4.23724
     8.00000   100.34805   224.55436     4.23689   100.34805   224.55436     4.23689
     8.10000   100.46361   225.00000     4.23653   100.46361   225.00000     4.23653
     8.20000   100.57920   225.00000     4.23617   100.57920   225.00000     4.23617
     8.30000   100.69479   225.00000     4.23580   100.69479   225.00000     4.23580
     8.40000   100.78122   225.00000     4.23552   100.78122   225.00000     4.23552
     8.50000   100.89683   225.00000     4.23515   100.89683   225.00000     4.23515
     8.60000   101.01243   225.00000     4.23477   101.01243   225.00000     4.23477
     8.70000   101.12805   225.00000     4.23438   101.12805   225.00000     4.23438
     8.80000   101.24369   224.54509     4.23399   101.24369   224.54509     4.23399
     8.90000   101.35931   224.54508     4.23360   101.35931   224.54508     4.23360
     9.00000   101.44577   225.45493     4.23330   101.44577   225.45493     4.23330
     9.10000   101.56140   224.54506     4.23290   101.56140   224.54506     4.23290
     9.20000   101.67704   224.54505     4.23249   101.67704   224.54505     4.23249
     9.30000   101.79269   225.45496     4.23208   101.79269   225.45496     4.23208
     9.40000   101.87915   225.00000     4.23177   101.87915   225.00000     4.23177
     9.50000   101.99480   225.00000     4.23135   101.99480   225.00000     4.23135
     9.60000   102.11047   225.00000     4.23093   102.11047   225.00000     4.23093
     9.70000   102.19696   225.00000     4.23061   102.19696   225.00000     4.23061
     9.80000   102.31264   225.00000     4.23017   102.31264   225.00000     4.23017
     9.90000   102.42833   225.00000     4.22974   102.42833   225.00000     4.22974
    10.00000   102.51484   225.00000     4.22940   102.51484   225.00000     4.22940
    10.10000   102.63057   225.46463     4.22896   102.63057   225.46463     4.22896
    10.20000   102.74628   224.53536     4.22851   102.74628   224.53536     4.22851
    10.30000   102.83280   225.46465     4.22816   102.83280   225.46465     4.22816
    10.40000   102.94853   224.53534     4.22770   102.94853   224.53534     4.22770
    10.50000   103.03507   224.53533     4.22735   103.03507   224.53533     4.22735
    10.60000   103.15081   224.53531     4.22688   103.15081   224.53531     4.22688
    10.70000   103.23734   225.00000     4.22653   103.23734   225.00000     4.22653
    10.80000   103.35310   225.00000     4.22605   103.35310   225.00000     4.22605
    10.90000   103.43966   225.00000     4.22569   103.43966   225.00000     4.22569
    11.00000   103.55544   225.00000     4.22520   103.55544   225.00000     4.22520
    11.10000   103.64202   225.00000     4.22483   103.64202   225.00000     4.22483
    11.20000   103.75781   225.00000     4.22434   103.75781   225.00000     4.22434
    11.30000   103.84444   224.52524     4.22396   103.84444   224.52524     4.22396
    11.40000   103.93104   225.47477     4.22358   103.93104   225.47477     4.22358
    11.50000   104.04686   224.52522     4.22307   104.04686   224.52522     4.22307
    11.60000   104.13348   225.47480     4.22269   104.13348   225.47480     4.22269
    11.70000   104.22011   224.52519     4.22230   104.22011   224.52519     4.22230
    11.80000   104.33596   225.47482     4.22178   104.33596   225.47482     4.22178
    11.90000   104.42257   225.00000     4.22138   104.42257   225.00000     4.22138
    12.00000   104.50923   225.00000     4.22098   104.50923   225.00000     4.22098
    12.10000   104.62511   225.00000     4.22045   104.62511   225.00000     4.22045
    12.20000   104.71178   225.00000     4.22004   104.71178   225.00000     4.22004
    12.30000   104.79846   225.00000     4.21963   104.79846   225.00000     4.21963
    12.40000   104.88514   225.00000     4.21922   104.88514   225.00000     4.21922
    12.50000   105.00110   224.51466     4.21866   105.00110   224.51466     4.21866
    12.60000   105.08781   224.51465     4.21824   105.08781   224.51465     4.21824
    12.70000   105.17452   224.51463     4.21782   105.17452   224.51463     4.21782
    12.80000   105.26124   225.48538     4.21739   105.26124   225.48538     4.21739
    12.90000   105.34798   224.51461     4.21696   105.34798   224.51461     4.21696
    13.00000   105.43472   225.48540     4.21653   105.43472   225.48540     4.21653
    13.10000   105.55069   225.00000     4.21595   105.55069   225.00000     4.21595
    13.20000   105.63746   225.00000     4.21551   105.63746   225.00000     4.21551
    13.30000   105.72423   225.00000     4.21507   105.72423   225.00000     4.21507
    13.40000   105.81101   225.00000     4.21462   105.81101   225.00000     4.21462
    13.50000   105.89781   225.00000     4.21417   105.89781   225.00000     4.21417
    13.60000   105.98461   225.00000     4.21372   105.98461   225.00000     4.21372
    13.70000   106.07146   225.49640     4.21326   106.07146   225.49640     4.21326
    13.80000   106.15828   224.50359     4.21280   106.15828   224.50359     4.21280
    13.90000   106.24512   224.50357     4.21234   106.24512   224.50357     4.21234
    14.00000   106.33197   224.50356     4.21187   106.33197   224.50356     4.21187
    14.10000   106.41883   225.49645     4.21140   106.41883   225.49645     4.21140
    14.20000   106.50570   225.49647     4.21093   106.50570   225.49647     4.21093
    14.30000   106.59255   225.00000     4.21045   106.59255   225.00000     4.21045
    14.40000   106.67945   225.00000     4.20997   106.67945   225.00000     4.20997
    14.50000   106.76635   225.00000     4.20949   106.76635   225.00000     4.20949
    14.60000   106.85327   225.00000     4.20900   106.85327   225.00000     4.20900
    14.70000   106.94020   225.00000     4.20851   106.94020   225.00000     4.20851
    14.80000   106.99784   225.00000     4.20817   106.99784   225.00000     4.20817
    14.90000   107.08483   224.49203     4.20768   107.08483   224.49203     4.20768
    15.00000   107.17180   224.49202     4.20718   107.17180   224.49202     4.20718
    15.10000   107.25878   225.50800     4.20667   107.25878   225.50800     4.20667
    15.20000   107.34577   224.49199     4.20617   107.34577   224.49199     4.20617
    15.30000   107.43278   225.50803     4.20566   107.43278   225.50803     4.20566
    15.40000   107.49047   225.50804     4.20531   107.49047   225.50804     4.20531
    15.50000   107.57747   225.00000     4.20479   107.57747   225.00000     4.20479
    15.60000   107.66452   225.00000     4.20427   107.66452   225.00000     4.20427
    15.70000   107.75158   225.00000     4.20375   107.75158   225.00000     4.20375
    15.80000   107.83866   225.00000     4.20322   107.83866   225.00000     4.20322
    15.90000   107.89640   225.00000     4.20286   107.89640   225.00000     4.20286
    16.00000   107.98350   225.00000     4.20233   107.98350   225.00000     4.20233
    16.10000   108.07066   224.47991     4.20179   108.07066   224.47991     4.20179
    16.20000   108.12843   225.52010     4.20142   108.12843   225.52010     4.20142
    16.30000   108.21557   224.47988     4.20088   108.21557   224.47988     4.20088
    16.40000   108.30274   224.47987     4.20033   108.30274   224.47987     4.20033
    16.50000   108.36054   224.47986     4.19996   108.36054   224.47986     4.19996
    16.60000   108.44773   225.52016     4.19941   108.44773   225.52016     4.19941
    16.70000   108.53490   225.00000     4.19885   108.53490   225.00000     4.19885
    16.80000   108.59273   225.00000     4.19847   108.59273   225.00000     4.19847
    16.90000   108.67997   225.00000     4.19791   108.67997   225.00000     4.19791
    17.00000   108.73783   225.00000     4.19753   108.73783   225.00000     4.19753
    17.10000   108.82510   225.00000     4.19696   108.82510   225.00000     4.19696
    17.20000   108.91238   225.00000     4.19638   108.91238   225.00000     4.19638
    17.30000   108.94085   225.00000     4.19618   108.94085   225.00000     4.19618
    17.40000   109.05763   225.53280     4.19541   109.05763   225.53280     4.19541
    17.50000   109.11554   225.53281     4.19501   109.11554   225.53281     4.19501
    17.60000   109.20290   224.46717     4.19443   109.20290   224.46717     4.19443
    17.70000   109.26083   224.46716     4.19403   109.26083   224.46716     4.19403
    17.80000   109.34822   225.53286     4.19343   109.34822   225.53286     4.19343
    17.90000   109.40613   225.00000     4.19303   109.40613   225.00000     4.19303
    18.00000   109.49356   225.00000     4.19243   109.49356   225.00000     4.19243
    18.10000   109.55154   225.00000     4.19202   109.55154   225.00000     4.19202
    18.20000   109.63900   225.00000     4.19141   109.63900   225.00000     4.19141
    18.30000   109.69700   225.00000     4.19100   109.69700   225.00000     4.19100
    18.40000   109.75502   225.00000     4.19058   109.75502   225.00000     4.19058
    18.50000   109.84253   225.00000     4.18997   109.84253   225.00000     4.18997
    18.60000   109.90061   225.54613     4.18954   109.90061   225.54613     4.18954
    18.70000   109.98816   224.45386     4.18892   109.98816   224.45386     4.18892
    18.80000   110.04623   225.54616     4.18849   110.04623   225.54616     4.18849
    18.90000   110.10431   224.45383     4.18807   110.10431   224.45383     4.18807
    19.00000   110.19192   224.45381     4.18743   110.19192   224.45381     4.18743
    19.10000   110.25002   225.54620     4.18700   110.25002   225.54620     4.18700
    19.20000   110.30810   225.00000     4.18657   110.30810   225.00000     4.18657
    19.30000   110.39576   225.00000     4.18593   110.39576   225.00000     4.18593
    19.40000   110.45391   225.00000     4.18549   110.45391   225.00000     4.18549
    19.50000   110.51207   225.00000     4.18505   110.51207   225.00000     4.18505
    19.60000   110.59979   225.00000     4.18439   110.59979   225.00000     4.18439
    19.70000   110.65798   225.00000     4.18395   110.65798   225.00000     4.18395
    19.80000   110.68662   225.00000     4.18371   110.68662   225.00000     4.18371
    19.90000   110.77444   225.56014     4.18305   110.77444   225.56014     4.18305
    20.00000   110.86224   225.56016     4.18238   110.86224   225.56016     4.18238
    20.10000   110.92049   224.43983     4.18192   110.92049   224.43983     4.18192
    20.20000   110.97874   224.43982     4.18147   110.97874   224.43982     4.18147
    20.30000   111.03702   224.43980     4.18101   111.03702   224.43980     4.18101
    20.40000   111.12490   225.56022     4.18033   111.12490   225.56022     4.18033
    20.50000   111.18316   225.00000     4.17987   111.18316   225.00000     4.17987
    20.60000   111.24147   225.00000     4.17940   111.24147   225.00000     4.17940
    20.70000   111.29981   225.00000     4.17893   111.29981   225.00000     4.17893
    20.80000   111.35815   225.00000     4.17846   111.35815   225.00000     4.17846
    20.90000   111.41651   225.00000     4.17799   111.41651   225.00000     4.17799
    21.00000   111.50452   225.00000     4.17729   111.50452   225.00000     4.17729
    21.10000   111.53327   225.00000     4.17704   111.53327   225.00000     4.17704
    21.20000   111.62137   225.57488     4.17633   111.62137   225.57488     4.17633
    21.30000   111.67980   224.42510     4.17584   111.67980   224.42510     4.17584
    21.40000   111.73823   224.42509     4.17536   111.73823   224.42509     4.17536
    21.50000   111.79668   224.42508     4.17487   111.79668   224.42508     4.17487
    21.60000   111.85515   224.42506     4.17439   111.85515   224.42506     4.17439
    21.70000   111.91363   224.42505     4.17389   111.91363   224.42505     4.17389
    21.80000   111.97208   225.00000     4.17340   111.97208   225.00000     4.17340
    21.90000   112.03060   225.00000     4.17291   112.03060   225.00000     4.17291
    22.00000   112.11883   225.00000     4.17217   112.11883   225.00000     4.17217
    22.10000   112.17739   225.00000     4.17167   112.17739   225.00000     4.17167
    22.20000   112.23595   225.00000     4.17117   112.23595   225.00000     4.17117
    22.30000   112.29454   225.00000     4.17066   112.29454   225.00000     4.17066
    22.40000   112.35314   225.00000     4.17016   112.35314   225.00000     4.17016
    22.50000   112.41181   225.59041     4.16964   112.41181   225.59041     4.16964
    22.60000   112.47044   225.59042     4.16913   112.47044   225.59042     4.16913
    22.70000   112.52909   224.40956     4.16862   112.52909   224.40956     4.16862
    22.80000   112.58776   224.40955     4.16810   112.58776   224.40955     4.16810
    22.90000   112.64644   224.40953     4.16758   112.64644   224.40953     4.16758
    23.00000   112.70514   224.40952     4.16706   112.70514   224.40952     4.16706
    23.10000   112.76381   225.00000     4.16654   112.76381   225.00000     4.16654
    23.20000   112.79275   225.00000     4.16626   112.79275   225.00000     4.16626
    23.30000   112.85149   225.00000     4.16574   112.85149   225.00000     4.16574
