 # applied field (T), theta (degree), phi (degree), abs for RE 1-2
     0.00000     9.06328   315.00000     0.30129     9.06328   225.00000     0.30129
     0.10000     9.19434   315.41477     0.30120     8.93192   225.43000     0.30139
     0.20000     9.31189   315.79149     0.30113     8.81380   225.84688     0.30148
     0.30000     9.44256   316.18032     0.30105     8.68183   226.30939     0.30160
     0.40000     9.57308   316.55707     0.30098     8.54945   226.79101     0.30172
     0.50000     9.70351   316.92269     0.30092     8.41664   227.29328     0.30185
     0.60000     9.82083   317.25784     0.30087     8.29738   227.78007     0.30197
     0.70000     9.95127   317.60452     0.30082     8.16378   228.32616     0.30212
     0.80000    10.08179   317.94249     0.30078     8.02970   228.89804     0.30227
     0.90000    10.21247   318.27247     0.30075     7.89516   229.49778     0.30243
     1.00000    10.33033   318.57719     0.30074     7.77465   230.07824     0.30257
     1.10000    10.46150   318.89360     0.30072     7.63935   230.73689     0.30274
     1.20000    10.59302   319.20388     0.30071     7.50365   231.43028     0.30292
     1.30000    10.72497   319.50858     0.30071     7.36759   232.16120     0.30311
     1.40000    10.85743   319.80824     0.30072     7.23124   232.93264     0.30330
     1.50000    10.97722   320.08667     0.30074     7.10977   233.67727     0.30347
     1.60000    11.11084   320.37775     0.30076     6.97320   234.53421     0.30368
     1.70000    11.24518   320.66510     0.30079     6.83662   235.44169     0.30389
     1.80000    11.38032   320.94912     0.30083     6.70016   236.40374     0.30411
     1.90000    11.51635   321.23017     0.30088     6.56400   237.42471     0.30433
     2.00000    11.65334   321.50860     0.30093     6.42832   238.50925     0.30456
     2.10000    11.79137   321.78472     0.30100     6.29336   239.66234     0.30479
     2.20000    11.93052   322.05881     0.30107     6.15936   240.88931     0.30503
     2.30000    12.07089   322.33116     0.30115     6.02664   242.19579     0.30528
     2.40000    12.21254   322.60200     0.30123     5.89554   243.58776     0.30553
     2.50000    12.35555   322.87156     0.30133     5.76645   245.07143     0.30579
     2.60000    12.50002   323.14004     0.30143     5.63981   246.65326     0.30605
     2.70000    12.64601   323.40762     0.30153     5.51615   248.33983     0.30631
     2.80000    12.79362   323.67447     0.30165     5.39602   250.13773     0.30658
     2.90000    12.94292   323.94074     0.30177     5.28006   252.05341     0.30685
     3.00000    13.10964   324.22562     0.30192     5.15554   254.31577     0.30717
     3.10000    13.26282   324.49143     0.30205     5.05074   256.50111     0.30745
     3.20000    13.41794   324.75702     0.30219     4.95257   258.82080     0.30773
     3.30000    13.59158   325.04262     0.30237     4.85077   261.55424     0.30807
     3.40000    13.75111   325.30834     0.30252     4.76973   264.16737     0.30835
     3.50000    13.91283   325.57406     0.30268     4.69847   266.91732     0.30865
     3.60000    14.09427   325.86109     0.30288     4.63036   270.13126     0.30899
     3.70000    14.26091   326.12725     0.30305     4.58339   273.15414     0.30928
     3.80000    14.44816   326.41555     0.30326     4.54513   276.65336     0.30963
     3.90000    14.63865   326.70472     0.30347     4.52482   280.27560     0.30998
     4.00000    14.81350   326.97182     0.30366     4.52442   283.60287     0.31027
     4.10000    15.01039   327.26223     0.30389     4.54188   287.37665     0.31062
     4.20000    15.21083   327.55341     0.30412     4.58085   291.18250     0.31097
     4.30000    15.41493   327.84531     0.30436     4.64210   294.98350     0.31133
     4.40000    15.62278   328.13784     0.30461     4.72608   298.74300     0.31168
     4.50000    15.83449   328.43093     0.30486     4.83299   302.42665     0.31203
     4.60000    16.07192   328.74967     0.30514     4.97679   306.38436     0.31243
     4.70000    16.29211   329.04392     0.30541     5.13147   309.81695     0.31277
     4.80000    16.51644   329.33841     0.30567     5.30803   313.09684     0.31312
     4.90000    16.76839   329.65918     0.30598     5.52739   316.54395     0.31351
     5.00000    17.02579   329.98054     0.30629     5.77194   319.78082     0.31390
     5.10000    17.26411   330.27552     0.30657     6.01393   322.51060     0.31424
     5.20000    17.53211   330.59720     0.30688     6.30311   325.34177     0.31462
     5.30000    17.80586   330.91889     0.30721     6.61417   327.96718     0.31500
     5.40000    18.11203   331.26787     0.30757     6.97937   330.63208     0.31542
     5.50000    18.39824   331.58914     0.30790     7.33307   332.85806     0.31579
     5.60000    18.71847   331.93762     0.30827     7.74311   335.11291     0.31620
     5.70000    19.04626   332.28551     0.30864     8.17508   337.17685     0.31659
     5.80000    19.38171   332.63252     0.30902     8.62799   339.06606     0.31698
     5.90000    19.72489   332.97833     0.30940     9.10099   340.79611     0.31736
     6.00000    20.10706   333.35096     0.30982     9.63896   342.52406     0.31778
     6.10000    20.49879   333.72187     0.31023    10.19939   344.09755     0.31818
     6.20000    20.90014   334.09066     0.31065    10.78152   345.53239     0.31856
     6.30000    21.34509   334.48525     0.31111    11.43630   346.95125     0.31897
     6.40000    21.80163   334.87683     0.31156    12.11535   348.24007     0.31936
     6.50000    22.26980   335.26494     0.31201    12.81801   349.41313     0.31974
     6.60000    22.82354   335.70497     0.31254    13.65906   350.64657     0.32016
     6.70000    23.39315   336.13984     0.31306    14.53061   351.75890     0.32056
     6.80000    23.97857   336.56894     0.31357    15.43186   352.76474     0.32093
     6.90000    24.66079   337.04583     0.31415    16.49070   353.79736     0.32132
     7.00000    25.40532   337.54098     0.31475    17.65314   354.77848     0.32171
     7.10000    83.10102   351.09948     0.32273    96.89898     8.90052     0.32273
     7.20000    83.10323   351.10232     0.32275    96.89677     8.89768     0.32275
     7.30000    83.10543   351.10517     0.32277    96.89457     8.89483     0.32277
     7.40000    83.10763   351.10801     0.32279    96.89237     8.89199     0.32279
     7.50000    83.10984   351.11086     0.32281    96.89016     8.88914     0.32281
     7.60000    83.11204   351.11370     0.32283    96.88796     8.88630     0.32283
     7.70000    83.11424   351.11654     0.32285    96.88576     8.88346     0.32285
     7.80000    83.11644   351.11938     0.32287    96.88356     8.88062     0.32287
     7.90000    83.11864   351.12222     0.32289    96.88136     8.87778     0.32289
     8.00000    83.12084   351.12506     0.32290    96.87916     8.87494     0.32290
     8.10000    83.12304   351.12790     0.32292    96.87696     8.87210     0.32292
     8.20000    83.12524   351.13073     0.32294    96.87476     8.86927     0.32294
     8.30000    83.12744   351.13357     0.32296    96.87256     8.86643     0.32296
     8.40000    83.12963   351.13641     0.32298    96.87037     8.86359     0.32298
     8.50000    83.13183   351.13924     0.32300    96.86817     8.86076     0.32300
     8.60000    83.13403   351.14207     0.32302    96.86597     8.85793     0.32302
     8.70000    83.13622   351.14491     0.32304    96.86378     8.85509     0.32304
     8.80000    83.13842   351.14774     0.32306    96.86158     8.85226     0.32306
     8.90000    83.14061   351.15057     0.32308    96.85939     8.84943     0.32308
     9.00000    83.14280   351.15340     0.32310    96.85720     8.84660     0.32310
     9.10000    83.14500   351.15623     0.32312    96.85500     8.84377     0.32312
     9.20000    83.14719   351.15906     0.32314    96.85281     8.84094     0.32314
     9.30000    83.14938   351.16189     0.32316    96.85062     8.83811     0.32316
     9.40000    83.15157   351.16471     0.32318    96.84843     8.83529     0.32318
     9.50000    83.15376   351.16754     0.32320    96.84624     8.83246     0.32320
     9.60000    83.15595   351.17036     0.32322    96.84405     8.82964     0.32322
     9.70000    83.15813   351.17319     0.32324    96.84187     8.82681     0.32324
     9.80000    83.16032   351.17601     0.32326    96.83968     8.82399     0.32326
     9.90000    83.16251   351.17883     0.32327    96.83749     8.82117     0.32327
    10.00000    83.16470   351.18165     0.32329    96.83530     8.81835     0.32329
    10.10000    83.16688   351.18448     0.32331    96.83312     8.81552     0.32331
    10.20000    83.16907   351.18730     0.32333    96.83093     8.81270     0.32333
    10.30000    83.17125   351.19011     0.32335    96.82875     8.80989     0.32335
    10.40000    83.17343   351.19293     0.32337    96.82657     8.80707     0.32337
    10.50000    83.17562   351.19575     0.32339    96.82438     8.80425     0.32339
    10.60000    83.17780   351.19857     0.32341    96.82220     8.80143     0.32341
    10.70000    83.17998   351.20138     0.32343    96.82002     8.79862     0.32343
    10.80000    83.18216   351.20420     0.32345    96.81784     8.79580     0.32345
    10.90000    83.18434   351.20701     0.32347    96.81566     8.79299     0.32347
    11.00000    83.18652   351.20982     0.32349    96.81348     8.79018     0.32349
    11.10000    83.18870   351.21263     0.32351    96.81130     8.78737     0.32351
    11.20000    83.19088   351.21545     0.32353    96.80912     8.78455     0.32353
    11.30000    83.19306   351.21826     0.32355    96.80694     8.78174     0.32355
    11.40000    83.19523   351.22107     0.32357    96.80477     8.77893     0.32357
    11.50000    83.19741   351.22387     0.32359    96.80259     8.77613     0.32359
    11.60000    83.19958   351.22668     0.32361    96.80042     8.77332     0.32361
    11.70000    83.20176   351.22949     0.32363    96.79824     8.77051     0.32363
    11.80000    83.20393   351.23229     0.32365    96.79607     8.76771     0.32365
    11.90000    83.20611   351.23510     0.32367    96.79389     8.76490     0.32367
    12.00000    83.20828   351.23790     0.32369    96.79172     8.76210     0.32369
    12.10000    83.21045   351.24071     0.32370    96.78955     8.75929     0.32370
    12.20000    83.21262   351.24351     0.32372    96.78738     8.75649     0.32372
    12.30000    83.21479   351.24631     0.32374    96.78521     8.75369     0.32374
    12.40000    83.21696   351.24911     0.32376    96.78304     8.75089     0.32376
    12.50000    83.21913   351.25191     0.32378    96.78087     8.74809     0.32378
    12.60000    83.22130   351.25471     0.32380    96.77870     8.74529     0.32380
    12.70000    83.22347   351.25751     0.32382    96.77653     8.74249     0.32382
    12.80000    83.22564   351.26031     0.32384    96.77436     8.73969     0.32384
    12.90000    83.22780   351.26310     0.32386    96.77220     8.73690     0.32386
    13.00000    83.22997   351.26590     0.32388    96.77003     8.73410     0.32388
    13.10000    83.23213   351.26869     0.32390    96.76787     8.73131     0.32390
    13.20000    83.23430   351.27149     0.32392    96.76570     8.72851     0.32392
    13.30000    83.23646   351.27428     0.32394    96.76354     8.72572     0.32394
    13.40000    83.23863   351.27707     0.32396    96.76137     8.72293     0.32396
    13.50000    83.24079   351.27986     0.32398    96.75921     8.72014     0.32398
    13.60000    83.24295   351.28266     0.32400    96.75705     8.71734     0.32400
    13.70000    83.24511   351.28544     0.32402    96.75489     8.71456     0.32402
    13.80000    83.24727   351.28823     0.32404    96.75273     8.71177     0.32404
    13.90000    83.24943   351.29102     0.32406    96.75057     8.70898     0.32406
    14.00000    83.25159   351.29381     0.32408    96.74841     8.70619     0.32408
    14.10000    83.25375   351.29660     0.32410    96.74625     8.70340     0.32410
    14.20000    83.25591   351.29938     0.32412    96.74409     8.70062     0.32412
    14.30000    83.25807   351.30217     0.32414    96.74193     8.69783     0.32414
    14.40000    83.26022   351.30495     0.32416    96.73978     8.69505     0.32416
    14.50000    83.26238   351.30773     0.32418    96.73762     8.69227     0.32418
    14.60000    83.26454   351.31051     0.32420    96.73546     8.68949     0.32420
    14.70000    83.26669   351.31329     0.32422    96.73331     8.68671     0.32422
    14.80000    83.26885   351.31608     0.32424    96.73115     8.68392     0.32424
    14.90000    83.27100   351.31885     0.32426    96.72900     8.68115     0.32426
    15.00000    83.27315   351.32163     0.32428    96.72685     8.67837     0.32428
    15.10000    83.27530   351.32441     0.32429    96.72470     8.67559     0.32429
    15.20000    83.27745   351.32719     0.32431    96.72255     8.67281     0.32431
    15.30000    83.27961   351.32996     0.32433    96.72039     8.67004     0.32433
    15.40000    83.28176   351.33274     0.32435    96.71824     8.66726     0.32435
    15.50000    83.28391   351.33551     0.32437    96.71609     8.66449     0.32437
    15.60000    83.28605   351.33829     0.32439    96.71395     8.66171     0.32439
    15.70000    83.28820   351.34106     0.32441    96.71180     8.65894     0.32441
    15.80000    83.29035   351.34383     0.32443    96.70965     8.65617     0.32443
    15.90000    83.29250   351.34660     0.32445    96.70750     8.65340     0.32445
    16.00000    83.29464   351.34937     0.32447    96.70536     8.65063     0.32447
    16.10000    83.29679   351.35214     0.32449    96.70321     8.64786     0.32449
    16.20000    83.29893   351.35491     0.32451    96.70107     8.64509     0.32451
    16.30000    83.30108   351.35768     0.32453    96.69892     8.64232     0.32453
    16.40000    83.30322   351.36044     0.32455    96.69678     8.63956     0.32455
    16.50000    83.30536   351.36321     0.32457    96.69464     8.63679     0.32457
    16.60000    83.30751   351.36598     0.32459    96.69249     8.63402     0.32459
    16.70000    83.30965   351.36874     0.32461    96.69035     8.63126     0.32461
    16.80000    83.31179   351.37150     0.32463    96.68821     8.62850     0.32463
    16.90000    83.31393   351.37427     0.32465    96.68607     8.62573     0.32465
    17.00000    83.31607   351.37703     0.32467    96.68393     8.62297     0.32467
    17.10000    83.31821   351.37979     0.32469    96.68179     8.62021     0.32469
    17.20000    83.32035   351.38255     0.32471    96.67965     8.61745     0.32471
    17.30000    83.32248   351.38531     0.32473    96.67752     8.61469     0.32473
    17.40000    83.32462   351.38807     0.32475    96.67538     8.61193     0.32475
    17.50000    83.32676   351.39082     0.32477    96.67324     8.60918     0.32477
    17.60000    83.32889   351.39358     0.32479    96.67111     8.60642     0.32479
    17.70000    83.33103   351.39634     0.32481    96.66897     8.60366     0.32481
    17.80000    83.33316   351.39909     0.32483    96.66684     8.60091     0.32483
    17.90000    83.33530   351.40185     0.32485    96.66470     8.59815     0.32485
    18.00000    83.33743   351.40460     0.32487    96.66257     8.59540     0.32487
    18.10000    83.33956   351.40735     0.32489    96.66044     8.59265     0.32489
    18.20000    83.34169   351.41010     0.32491    96.65831     8.58990     0.32491
    18.30000    83.34382   351.41285     0.32493    96.65618     8.58715     0.32493
    18.40000    83.34595   351.41560     0.32495    96.65405     8.58440     0.32495
    18.50000    83.34808   351.41835     0.32497    96.65192     8.58165     0.32497
    18.60000    83.35021   351.42110     0.32499    96.64979     8.57890     0.32499
    18.70000    83.35234   351.42385     0.32501    96.64766     8.57615     0.32501
    18.80000    83.35447   351.42660     0.32503    96.64553     8.57340     0.32503
    18.90000    83.35660   351.42934     0.32505    96.64340     8.57066     0.32505
    19.00000    83.35872   351.43209     0.32507    96.64128     8.56791     0.32507
    19.10000    83.36085   351.43483     0.32509    96.63915     8.56517     0.32509
    19.20000    83.36297   351.43757     0.32511    96.63703     8.56243     0.32511
    19.30000    83.36510   351.44032     0.32513    96.63490     8.55968     0.32513
    19.40000    83.36722   351.44306     0.32515    96.63278     8.55694     0.32515
    19.50000    83.36935   351.44580     0.32517    96.63065     8.55420     0.32517
    19.60000    83.37147   351.44854     0.32519    96.62853     8.55146     0.32519
    19.70000    83.37359   351.45128     0.32521    96.62641     8.54872     0.32521
    19.80000    83.37571   351.45402     0.32523    96.62429     8.54598     0.32523
    19.90000    83.37783   351.45675     0.32525    96.62217     8.54325     0.32525
    20.00000    83.37995   351.45949     0.32527    96.62005     8.54051     0.32527
    20.10000    83.38207   351.46223     0.32529    96.61793     8.53777     0.32529
    20.20000    83.38419   351.46496     0.32531    96.61581     8.53504     0.32531
    20.30000    83.38631   351.46769     0.32533    96.61369     8.53231     0.32533
    20.40000    83.38843   351.47043     0.32535    96.61157     8.52957     0.32535
    20.50000    83.39054   351.47316     0.32537    96.60946     8.52684     0.32537
    20.60000    83.39266   351.47589     0.32539    96.60734     8.52411     0.32539
    20.70000    83.39478   351.47862     0.32541    96.60522     8.52138     0.32541
    20.80000    83.39689   351.48135     0.32543    96.60311     8.51865     0.32543
    20.90000    83.39901   351.48408     0.32545    96.60099     8.51592     0.32545
    21.00000    83.40112   351.48681     0.32547    96.59888     8.51319     0.32547
    21.10000    83.40323   351.48954     0.32549    96.59677     8.51046     0.32549
    21.20000    83.40534   351.49226     0.32551    96.59466     8.50774     0.32551
    21.30000    83.40746   351.49499     0.32553    96.59254     8.50501     0.32553
    21.40000    83.40957   351.49772     0.32555    96.59043     8.50228     0.32555
    21.50000    83.41168   351.50044     0.32557    96.58832     8.49956     0.32557
    21.60000    83.41379   351.50316     0.32559    96.58621     8.49684     0.32559
    21.70000    83.41590   351.50589     0.32561    96.58410     8.49411     0.32561
    21.80000    83.41800   351.50861     0.32563    96.58200     8.49139     0.32563
    21.90000    83.42011   351.51133     0.32565    96.57989     8.48867     0.32565
    22.00000    83.42222   351.51405     0.32567    96.57778     8.48595     0.32567
    22.10000    83.42433   351.51677     0.32569    96.57567     8.48323     0.32569
    22.20000    83.42643   351.51949     0.32571    96.57357     8.48051     0.32571
    22.30000    83.42854   351.52220     0.32573    96.57146     8.47780     0.32573
    22.40000    83.43064   351.52492     0.32575    96.56936     8.47508     0.32575
    22.50000    83.43275   351.52764     0.32577    96.56725     8.47236     0.32577
    22.60000    83.43485   351.53035     0.32579    96.56515     8.46965     0.32579
    22.70000    83.43695   351.53307     0.32581    96.56305     8.46693     0.32581
    22.80000    83.43905   351.53578     0.32583    96.56095     8.46422     0.32583
    22.90000    83.44116   351.53849     0.32585    96.55884     8.46151     0.32585
    23.00000    83.44326   351.54120     0.32587    96.55674     8.45880     0.32587
    23.10000    83.44536   351.54392     0.32589    96.55464     8.45608     0.32589
    23.20000    83.44746   351.54663     0.32591    96.55254     8.45337     0.32591
    23.30000    83.44955   351.54933     0.32593    96.55045     8.45067     0.32593
