 # applied field (T), theta (degree), phi (degree), abs [muB/unitcell], abs [T]
       0.00000000       0.00000000       0.00000000      38.92444008       1.30123628
       0.10000000      90.00000000      18.86545606      38.79183792       1.29680342
       0.20000000      90.00000000     360.00000000      38.75577109       1.29559771
       0.30000000      90.00000000     360.00000000      38.75601724       1.29560594
       0.40000000      90.00000000     360.00000000      38.75626334       1.29561417
       0.50000000      90.00000000     360.00000000      38.75650940       1.29562239
       0.60000000      90.00000000     360.00000000      38.75675541       1.29563062
       0.70000000      90.00000000     360.00000000      38.75700138       1.29563884
       0.80000000      90.00000000     360.00000000      38.75724730       1.29564706
       0.90000000      90.00000000     360.00000000      38.75749318       1.29565528
       1.00000000      90.00000000     360.00000000      38.75773901       1.29566350
       1.10000000      90.00000000     360.00000000      38.75798479       1.29567171
       1.20000000      90.00000000     360.00000000      38.75823053       1.29567993
       1.30000000      90.00000000     360.00000000      38.75847622       1.29568814
       1.40000000      90.00000000     360.00000000      38.75872187       1.29569635
       1.50000000      90.00000000     360.00000000      38.75896747       1.29570456
       1.60000000      90.00000000     360.00000000      38.75921302       1.29571277
       1.70000000      90.00000000     360.00000000      38.75945853       1.29572098
       1.80000000      90.00000000     360.00000000      38.75970399       1.29572919
       1.90000000      90.00000000     360.00000000      38.75994941       1.29573739
       2.00000000      90.00000000     360.00000000      38.76019478       1.29574559
       2.10000000      90.00000000     360.00000000      38.76044011       1.29575379
       2.20000000      90.00000000     360.00000000      38.76068539       1.29576199
       2.30000000      90.00000000     360.00000000      38.76093063       1.29577019
       2.40000000      90.00000000     360.00000000      38.76117582       1.29577839
       2.50000000      90.00000000     360.00000000      38.76142096       1.29578658
       2.60000000      90.00000000     360.00000000      38.76166606       1.29579478
       2.70000000      90.00000000     360.00000000      38.76191111       1.29580297
       2.80000000      90.00000000     360.00000000      38.76215612       1.29581116
       2.90000000      90.00000000     360.00000000      38.76240108       1.29581935
       3.00000000      90.00000000     360.00000000      38.76264600       1.29582754
       3.10000000      90.00000000     360.00000000      38.76289087       1.29583572
       3.20000000      90.00000000     360.00000000      38.76313569       1.29584391
       3.30000000      90.00000000     360.00000000      38.76338047       1.29585209
       3.40000000      90.00000000     360.00000000      38.76362520       1.29586027
       3.50000000      90.00000000     360.00000000      38.76386989       1.29586845
       3.60000000      90.00000000     360.00000000      38.76411453       1.29587663
       3.70000000      90.00000000     360.00000000      38.76435913       1.29588481
       3.80000000      90.00000000     360.00000000      38.76460368       1.29589298
       3.90000000      90.00000000     360.00000000      38.76484819       1.29590116
       4.00000000      90.00000000     360.00000000      38.76509265       1.29590933
       4.10000000      90.00000000     360.00000000      38.76533706       1.29591750
       4.20000000      90.00000000     360.00000000      38.76558143       1.29592567
       4.30000000      90.00000000     360.00000000      38.76582576       1.29593384
       4.40000000      90.00000000     360.00000000      38.76607004       1.29594200
       4.50000000      90.00000000     360.00000000      38.76631427       1.29595017
       4.60000000      90.00000000     360.00000000      38.76655846       1.29595833
       4.70000000      90.00000000     360.00000000      38.76680260       1.29596649
       4.80000000      90.00000000     360.00000000      38.76704670       1.29597465
       4.90000000      90.00000000     360.00000000      38.76729075       1.29598281
       5.00000000      90.00000000     360.00000000      38.76753476       1.29599097
       5.10000000      90.00000000     360.00000000      38.76777872       1.29599912
       5.20000000      90.00000000     360.00000000      38.76802263       1.29600728
       5.30000000      90.00000000     360.00000000      38.76826650       1.29601543
       5.40000000      90.00000000     360.00000000      38.76851033       1.29602358
       5.50000000      90.00000000     360.00000000      38.76875410       1.29603173
       5.60000000      90.00000000     360.00000000      38.76899784       1.29603988
       5.70000000      90.00000000     360.00000000      38.76924153       1.29604802
       5.80000000      90.00000000     360.00000000      38.76948517       1.29605617
       5.90000000      90.00000000     360.00000000      38.76972877       1.29606431
       6.00000000      90.00000000     360.00000000      38.76997232       1.29607245
       6.10000000      90.00000000     360.00000000      38.77021583       1.29608059
       6.20000000      90.00000000     360.00000000      38.77045929       1.29608873
       6.30000000      90.00000000     360.00000000      38.77070270       1.29609687
       6.40000000      90.00000000     360.00000000      38.77094607       1.29610501
       6.50000000      90.00000000     360.00000000      38.77118940       1.29611314
       6.60000000      90.00000000     360.00000000      38.77143268       1.29612127
       6.70000000      90.00000000     360.00000000      38.77167591       1.29612940
       6.80000000      90.00000000     360.00000000      38.77191910       1.29613753
       6.90000000      90.00000000     360.00000000      38.77216224       1.29614566
       7.00000000      90.00000000     360.00000000      38.77240534       1.29615379
       7.10000000      90.00000000     360.00000000      38.77264839       1.29616191
       7.20000000      90.00000000     360.00000000      38.77289140       1.29617004
       7.30000000      90.00000000     360.00000000      38.77313436       1.29617816
       7.40000000      90.00000000     360.00000000      38.77337728       1.29618628
       7.50000000      90.00000000     360.00000000      38.77362015       1.29619440
       7.60000000      90.00000000     360.00000000      38.77386297       1.29620252
       7.70000000      90.00000000     360.00000000      38.77410575       1.29621063
       7.80000000      90.00000000     360.00000000      38.77434849       1.29621875
       7.90000000      90.00000000     360.00000000      38.77459118       1.29622686
       8.00000000      90.00000000     360.00000000      38.77483382       1.29623497
       8.10000000      90.00000000     360.00000000      38.77507642       1.29624308
       8.20000000      90.00000000     360.00000000      38.77531897       1.29625119
       8.30000000      90.00000000     360.00000000      38.77556148       1.29625930
       8.40000000      90.00000000     360.00000000      38.77580394       1.29626740
       8.50000000      90.00000000     360.00000000      38.77604636       1.29627551
       8.60000000      90.00000000     360.00000000      38.77628873       1.29628361
       8.70000000      90.00000000     360.00000000      38.77653105       1.29629171
       8.80000000      90.00000000     360.00000000      38.77677333       1.29629981
       8.90000000      90.00000000     360.00000000      38.77701557       1.29630791
       9.00000000      90.00000000     360.00000000      38.77725775       1.29631600
       9.10000000      90.00000000     360.00000000      38.77749990       1.29632410
       9.20000000      90.00000000     360.00000000      38.77774199       1.29633219
       9.30000000      90.00000000     360.00000000      38.77798405       1.29634028
       9.40000000      90.00000000     360.00000000      38.77822605       1.29634837
       9.50000000      90.00000000     360.00000000      38.77846801       1.29635646
       9.60000000      90.00000000     360.00000000      38.77870993       1.29636455
       9.70000000      90.00000000     360.00000000      38.77895180       1.29637264
       9.80000000      90.00000000     360.00000000      38.77919363       1.29638072
       9.90000000      90.00000000     360.00000000      38.77943540       1.29638880
      10.00000000      90.00000000     360.00000000      38.77967714       1.29639688
      10.10000000      90.00000000     360.00000000      38.77991883       1.29640496
      10.20000000      90.00000000     360.00000000      38.78016047       1.29641304
      10.30000000      90.00000000     360.00000000      38.78040207       1.29642112
      10.40000000      90.00000000     360.00000000      38.78064362       1.29642919
      10.50000000      90.00000000     360.00000000      38.78088513       1.29643727
      10.60000000      90.00000000     360.00000000      38.78112659       1.29644534
      10.70000000      90.00000000     360.00000000      38.78136801       1.29645341
      10.80000000      90.00000000     360.00000000      38.78160938       1.29646148
      10.90000000      90.00000000     360.00000000      38.78185071       1.29646955
      11.00000000      90.00000000     360.00000000      38.78209199       1.29647761
      11.10000000      90.00000000     360.00000000      38.78233323       1.29648568
      11.20000000      90.00000000     360.00000000      38.78257443       1.29649374
      11.30000000      90.00000000     360.00000000      38.78281558       1.29650180
      11.40000000      90.00000000     360.00000000      38.78305669       1.29650986
      11.50000000      90.00000000     360.00000000      38.78329775       1.29651792
      11.60000000      90.00000000     360.00000000      38.78353877       1.29652598
      11.70000000      90.00000000     360.00000000      38.78377974       1.29653403
      11.80000000      90.00000000     360.00000000      38.78402066       1.29654209
      11.90000000      90.00000000     360.00000000      38.78426154       1.29655014
      12.00000000      90.00000000     360.00000000      38.78450237       1.29655819
      12.10000000      90.00000000     360.00000000      38.78474316       1.29656624
      12.20000000      90.00000000     360.00000000      38.78498390       1.29657429
      12.30000000      90.00000000     360.00000000      38.78522460       1.29658233
      12.40000000      90.00000000     360.00000000      38.78546525       1.29659038
      12.50000000      90.00000000     360.00000000      38.78570586       1.29659842
      12.60000000      90.00000000     360.00000000      38.78594643       1.29660647
      12.70000000      90.00000000     360.00000000      38.78618695       1.29661451
      12.80000000      90.00000000     360.00000000      38.78642742       1.29662254
      12.90000000      90.00000000     360.00000000      38.78666785       1.29663058
      13.00000000      90.00000000     360.00000000      38.78690824       1.29663862
      13.10000000      90.00000000     360.00000000      38.78714858       1.29664665
      13.20000000      90.00000000     360.00000000      38.78738888       1.29665469
      13.30000000      90.00000000     360.00000000      38.78762914       1.29666272
      13.40000000      90.00000000     360.00000000      38.78786935       1.29667075
      13.50000000      90.00000000     360.00000000      38.78810951       1.29667878
      13.60000000      90.00000000     360.00000000      38.78834963       1.29668680
      13.70000000      90.00000000     360.00000000      38.78858971       1.29669483
      13.80000000      90.00000000     360.00000000      38.78882974       1.29670285
      13.90000000      90.00000000     360.00000000      38.78906973       1.29671088
      14.00000000      90.00000000     360.00000000      38.78930968       1.29671890
      14.10000000      90.00000000     360.00000000      38.78954958       1.29672692
      14.20000000      90.00000000     360.00000000      38.78978944       1.29673494
      14.30000000      90.00000000     360.00000000      38.79002925       1.29674295
      14.40000000      90.00000000     360.00000000      38.79026902       1.29675097
      14.50000000      90.00000000     360.00000000      38.79050875       1.29675898
      14.60000000      90.00000000     360.00000000      38.79074843       1.29676700
      14.70000000      90.00000000     360.00000000      38.79098807       1.29677501
      14.80000000      90.00000000     360.00000000      38.79122767       1.29678302
      14.90000000      90.00000000     360.00000000      38.79146722       1.29679102
      15.00000000      90.00000000     360.00000000      38.79170673       1.29679903
      15.10000000      90.00000000     360.00000000      38.79194619       1.29680704
      15.20000000      90.00000000     360.00000000      38.79218561       1.29681504
      15.30000000      90.00000000     360.00000000      38.79242499       1.29682304
      15.40000000      90.00000000     360.00000000      38.79266432       1.29683104
      15.50000000      90.00000000     360.00000000      38.79290362       1.29683904
      15.60000000      90.00000000     360.00000000      38.79314286       1.29684704
      15.70000000      90.00000000     360.00000000      38.79338207       1.29685504
      15.80000000      90.00000000     360.00000000      38.79362123       1.29686303
      15.90000000      90.00000000     360.00000000      38.79386034       1.29687103
      16.00000000      90.00000000     360.00000000      38.79409942       1.29687902
      16.10000000      90.00000000     360.00000000      38.79433845       1.29688701
      16.20000000      90.00000000     360.00000000      38.79457743       1.29689500
      16.30000000      90.00000000     360.00000000      38.79481638       1.29690299
      16.40000000      90.00000000     360.00000000      38.79505528       1.29691097
      16.50000000      90.00000000     360.00000000      38.79529413       1.29691896
      16.60000000      90.00000000     360.00000000      38.79553295       1.29692694
      16.70000000      90.00000000     360.00000000      38.79577172       1.29693492
      16.80000000      90.00000000     360.00000000      38.79601045       1.29694290
      16.90000000      90.00000000     360.00000000      38.79624913       1.29695088
      17.00000000      90.00000000     360.00000000      38.79648777       1.29695886
      17.10000000      90.00000000     360.00000000      38.79672637       1.29696684
      17.20000000      90.00000000     360.00000000      38.79696493       1.29697481
      17.30000000      90.00000000     360.00000000      38.79720344       1.29698278
      17.40000000      90.00000000     360.00000000      38.79744191       1.29699076
      17.50000000      90.00000000     360.00000000      38.79768033       1.29699873
      17.60000000      90.00000000     360.00000000      38.79791872       1.29700670
      17.70000000      90.00000000     360.00000000      38.79815706       1.29701466
      17.80000000      90.00000000     360.00000000      38.79839535       1.29702263
      17.90000000      90.00000000     360.00000000      38.79863361       1.29703060
      18.00000000      90.00000000     360.00000000      38.79887182       1.29703856
      18.10000000      90.00000000     360.00000000      38.79910999       1.29704652
      18.20000000      90.00000000     360.00000000      38.79934812       1.29705448
      18.30000000      90.00000000     360.00000000      38.79958620       1.29706244
      18.40000000      90.00000000     360.00000000      38.79982424       1.29707040
      18.50000000      90.00000000     360.00000000      38.80006224       1.29707835
      18.60000000      90.00000000     360.00000000      38.80030019       1.29708631
      18.70000000      90.00000000     360.00000000      38.80053810       1.29709426
      18.80000000      90.00000000     360.00000000      38.80077597       1.29710221
      18.90000000      90.00000000     360.00000000      38.80101380       1.29711016
      19.00000000      90.00000000     360.00000000      38.80125158       1.29711811
      19.10000000      90.00000000     360.00000000      38.80148933       1.29712606
      19.20000000      90.00000000     360.00000000      38.80172703       1.29713401
      19.30000000      90.00000000     360.00000000      38.80196468       1.29714195
      19.40000000      90.00000000     360.00000000      38.80220230       1.29714990
      19.50000000      90.00000000     360.00000000      38.80243987       1.29715784
      19.60000000      90.00000000     360.00000000      38.80267740       1.29716578
      19.70000000      90.00000000     360.00000000      38.80291488       1.29717372
      19.80000000      90.00000000     360.00000000      38.80315233       1.29718166
      19.90000000      90.00000000     360.00000000      38.80338973       1.29718959
      20.00000000      90.00000000     360.00000000      38.80362708       1.29719753
      20.10000000      90.00000000     360.00000000      38.80386440       1.29720546
      20.20000000      90.00000000     360.00000000      38.80410168       1.29721339
      20.30000000      90.00000000     360.00000000      38.80433891       1.29722132
      20.40000000      90.00000000     360.00000000      38.80457610       1.29722925
      20.50000000      90.00000000     360.00000000      38.80481324       1.29723718
      20.60000000      90.00000000     360.00000000      38.80505035       1.29724511
      20.70000000      90.00000000     360.00000000      38.80528741       1.29725303
      20.80000000      90.00000000     360.00000000      38.80552443       1.29726095
      20.90000000      90.00000000     360.00000000      38.80576141       1.29726888
      21.00000000      90.00000000     360.00000000      38.80599834       1.29727680
      21.10000000      90.00000000     360.00000000      38.80623523       1.29728472
      21.20000000      90.00000000     360.00000000      38.80647208       1.29729263
      21.30000000      90.00000000     360.00000000      38.80670889       1.29730055
      21.40000000      90.00000000     360.00000000      38.80694566       1.29730847
      21.50000000      90.00000000     360.00000000      38.80718238       1.29731638
      21.60000000      90.00000000     360.00000000      38.80741907       1.29732429
      21.70000000      90.00000000     360.00000000      38.80765571       1.29733220
      21.80000000      90.00000000     360.00000000      38.80789230       1.29734011
      21.90000000      90.00000000     360.00000000      38.80812886       1.29734802
      22.00000000      90.00000000     360.00000000      38.80836537       1.29735593
      22.10000000      90.00000000     360.00000000      38.80860185       1.29736383
      22.20000000      90.00000000     360.00000000      38.80883827       1.29737174
      22.30000000      90.00000000     360.00000000      38.80907466       1.29737964
      22.40000000      90.00000000     360.00000000      38.80931101       1.29738754
      22.50000000      90.00000000     360.00000000      38.80954731       1.29739544
      22.60000000      90.00000000     360.00000000      38.80978357       1.29740334
      22.70000000      90.00000000     360.00000000      38.81001979       1.29741123
      22.80000000      90.00000000     360.00000000      38.81025597       1.29741913
      22.90000000      90.00000000     360.00000000      38.81049211       1.29742702
      23.00000000      90.00000000     360.00000000      38.81072820       1.29743492
