 # applied field (T), theta (degree), phi (degree), abs for RE 3-4
     0.00000     0.09031   135.00000     3.97176     0.09031    45.00000     3.97176
     0.10000     0.67518     3.64996     3.97411     0.80735     6.12183     3.97148
     0.20000     1.46426     0.81623     3.97654     1.59835     3.95388     3.97108
     0.30000     2.20223     0.01065     3.97871     2.33803     3.26110     3.97063
     0.40000     2.99331   359.59236     3.98094     3.13108     2.88730     3.97007
     0.50000     3.78500   359.35190     3.98306     3.92492     2.66882     3.96942
     0.60000     4.52473   359.20543     3.98493     4.66683     2.53519     3.96874
     0.70000     5.31777   359.09544     3.98682     5.46238     2.43535     3.96793
     0.80000     6.11165   359.01539     3.98859     6.25894     2.36365     3.96704
     0.90000     6.85364   358.95841     3.99012     7.00359     2.31366     3.96614
     1.00000     7.64936   358.91050     3.99163     7.80234     2.27287     3.96511
     1.10000     8.44614   358.87232     3.99300     8.60233     2.24170     3.96400
     1.20000     9.24409   358.84128     3.99423     9.40366     2.21770     3.96282
     1.30000    10.09636   358.81404     3.99538    10.25974     2.19814     3.96149
     1.40000    10.89692   358.79272     3.99631    11.06407     2.18418     3.96018
     1.50000    11.75214   358.77342     3.99712    11.92351     2.17300     3.95871
     1.60000    12.55560   358.75789     3.99772    12.73113     2.16530     3.95728
     1.70000    13.41406   358.74347     3.99819    13.59423     2.15950     3.95569
     1.80000    14.32792   358.73008     3.99848    14.51326     2.15559     3.95393
     1.90000    15.19011   358.71894     3.99856    15.38055     2.15362     3.95223
     2.00000    16.05420   358.70894     3.99844    16.24995     2.15303     3.95048
     2.10000    16.97425   358.69932     3.99811    17.17586     2.15368     3.94856
     2.20000    17.95070   358.69003     3.99751    18.15877     2.15554     3.94649
     2.30000    18.87550   358.68195     3.99671    19.08988     2.15821     3.94448
     2.40000    19.85713   358.67398     3.99561    20.07838     2.16185     3.94233
     2.50000    20.84150   358.66649     3.99426    21.06982     2.16617     3.94014
     2.60000    21.88344   358.65900     3.99256    22.11937     2.17133     3.93780
     2.70000    22.92859   358.65184     3.99056    23.17224     2.17698     3.93543
     2.80000    24.03210   358.64457     3.98815    24.28392     2.18335     3.93293
     2.90000    25.13930   358.63751     3.98543    25.39927     2.19004     3.93042
     3.00000    26.36125   358.62991     3.98207    26.63003     2.19766     3.92766
     3.10000    27.53212   358.62277     3.97853    27.80905     2.20508     3.92503
     3.20000    28.81913   358.61500     3.97427    29.10453     2.21330     3.92217
     3.30000    30.16754   358.60689     3.96942    30.46106     2.22187     3.91923
     3.40000    31.57818   358.59840     3.96395    31.87913     2.23069     3.91621
     3.50000    33.05188   358.58945     3.95785    33.35915     2.23965     3.91313
     3.60000    34.64655   358.57960     3.95083    34.95862     2.24895     3.90991
     3.70000    36.36401   358.56873     3.94288    36.67847     2.25840     3.90658
     3.80000    38.26390   358.55626     3.93368    38.57708     2.26805     3.90308
     3.90000    40.29132   358.54231     3.92355    40.59799     2.27730     3.89956
     4.00000    42.62368   358.52527     3.91168    42.91556     2.28648     3.89580
     4.10000    45.26680   358.50441     3.89825    45.53172     2.29480     3.89192
     4.20000    48.46392   358.47659     3.88251    48.68130     2.30175     3.88775
     4.30000    52.52527   358.43666     3.86417    52.65952     2.30539     3.88323
     4.40000    58.49306   358.36823     3.84249    58.46718     2.29982     3.87791
     4.50000    90.35791   357.94456     3.85950    89.64209     2.05544     3.85950
     4.60000    90.35790   357.94467     3.85960    89.64210     2.05533     3.85960
     4.70000    90.35789   357.94478     3.85970    89.64211     2.05522     3.85970
     4.80000    90.35787   357.94489     3.85980    89.64213     2.05511     3.85980
     4.90000    90.35786   357.94500     3.85990    89.64214     2.05500     3.85990
     5.00000    90.35785   357.94511     3.86000    89.64215     2.05489     3.86000
     5.10000    90.35784   357.94522     3.86010    89.64216     2.05478     3.86010
     5.20000    90.35782   357.94533     3.86020    89.64218     2.05467     3.86020
     5.30000    90.35781   357.94544     3.86030    89.64219     2.05456     3.86030
     5.40000    90.35780   357.94555     3.86040    89.64220     2.05445     3.86040
     5.50000    90.35779   357.94566     3.86050    89.64221     2.05434     3.86050
     5.60000    90.35778   357.94577     3.86060    89.64222     2.05423     3.86060
     5.70000    90.35776   357.94588     3.86070    89.64224     2.05412     3.86070
     5.80000    90.35775   357.94599     3.86080    89.64225     2.05401     3.86080
     5.90000    90.35774   357.94610     3.86090    89.64226     2.05390     3.86090
     6.00000    90.35773   357.94621     3.86100    89.64227     2.05379     3.86100
     6.10000    90.35771   357.94632     3.86110    89.64229     2.05368     3.86110
     6.20000    90.35770   357.94643     3.86120    89.64230     2.05357     3.86120
     6.30000    90.35769   357.94654     3.86130    89.64231     2.05346     3.86130
     6.40000    90.35768   357.94665     3.86140    89.64232     2.05335     3.86140
     6.50000    90.35766   357.94676     3.86150    89.64234     2.05324     3.86150
     6.60000    90.35765   357.94687     3.86160    89.64235     2.05313     3.86160
     6.70000    90.35764   357.94698     3.86170    89.64236     2.05302     3.86170
     6.80000    90.35763   357.94709     3.86180    89.64237     2.05291     3.86180
     6.90000    90.35761   357.94720     3.86190    89.64239     2.05280     3.86190
     7.00000    90.35760   357.94731     3.86200    89.64240     2.05269     3.86200
     7.10000    90.35759   357.94742     3.86210    89.64241     2.05258     3.86210
     7.20000    90.35758   357.94752     3.86220    89.64242     2.05248     3.86220
     7.30000    90.35757   357.94763     3.86230    89.64243     2.05237     3.86230
     7.40000    90.35755   357.94774     3.86240    89.64245     2.05226     3.86240
     7.50000    90.35754   357.94785     3.86250    89.64246     2.05215     3.86250
     7.60000    90.35753   357.94796     3.86260    89.64247     2.05204     3.86260
     7.70000    90.35752   357.94807     3.86270    89.64248     2.05193     3.86270
     7.80000    90.35750   357.94818     3.86280    89.64250     2.05182     3.86280
     7.90000    90.35749   357.94829     3.86289    89.64251     2.05171     3.86289
     8.00000    90.35748   357.94840     3.86299    89.64252     2.05160     3.86299
     8.10000    90.35747   357.94851     3.86309    89.64253     2.05149     3.86309
     8.20000    90.35745   357.94862     3.86319    89.64255     2.05138     3.86319
     8.30000    90.35744   357.94873     3.86329    89.64256     2.05127     3.86329
     8.40000    90.35743   357.94884     3.86339    89.64257     2.05116     3.86339
     8.50000    90.35742   357.94895     3.86349    89.64258     2.05105     3.86349
     8.60000    90.35741   357.94906     3.86359    89.64259     2.05094     3.86359
     8.70000    90.35739   357.94917     3.86369    89.64261     2.05083     3.86369
     8.80000    90.35738   357.94928     3.86379    89.64262     2.05072     3.86379
     8.90000    90.35737   357.94939     3.86389    89.64263     2.05061     3.86389
     9.00000    90.35736   357.94950     3.86398    89.64264     2.05050     3.86398
     9.10000    90.35734   357.94961     3.86408    89.64266     2.05039     3.86408
     9.20000    90.35733   357.94971     3.86418    89.64267     2.05029     3.86418
     9.30000    90.35732   357.94982     3.86428    89.64268     2.05018     3.86428
     9.40000    90.35731   357.94993     3.86438    89.64269     2.05007     3.86438
     9.50000    90.35729   357.95004     3.86448    89.64271     2.04996     3.86448
     9.60000    90.35728   357.95015     3.86458    89.64272     2.04985     3.86458
     9.70000    90.35727   357.95026     3.86468    89.64273     2.04974     3.86468
     9.80000    90.35726   357.95037     3.86477    89.64274     2.04963     3.86477
     9.90000    90.35725   357.95048     3.86487    89.64275     2.04952     3.86487
    10.00000    90.35723   357.95059     3.86497    89.64277     2.04941     3.86497
    10.10000    90.35722   357.95070     3.86507    89.64278     2.04930     3.86507
    10.20000    90.35721   357.95081     3.86517    89.64279     2.04919     3.86517
    10.30000    90.35720   357.95092     3.86527    89.64280     2.04908     3.86527
    10.40000    90.35718   357.95102     3.86537    89.64282     2.04898     3.86537
    10.50000    90.35717   357.95113     3.86546    89.64283     2.04887     3.86546
    10.60000    90.35716   357.95124     3.86556    89.64284     2.04876     3.86556
    10.70000    90.35715   357.95135     3.86566    89.64285     2.04865     3.86566
    10.80000    90.35713   357.95146     3.86576    89.64287     2.04854     3.86576
    10.90000    90.35712   357.95157     3.86586    89.64288     2.04843     3.86586
    11.00000    90.35711   357.95168     3.86596    89.64289     2.04832     3.86596
    11.10000    90.35710   357.95179     3.86605    89.64290     2.04821     3.86605
    11.20000    90.35709   357.95190     3.86615    89.64291     2.04810     3.86615
    11.30000    90.35707   357.95201     3.86625    89.64293     2.04799     3.86625
    11.40000    90.35706   357.95211     3.86635    89.64294     2.04789     3.86635
    11.50000    90.35705   357.95222     3.86645    89.64295     2.04778     3.86645
    11.60000    90.35704   357.95233     3.86655    89.64296     2.04767     3.86655
    11.70000    90.35702   357.95244     3.86664    89.64298     2.04756     3.86664
    11.80000    90.35701   357.95255     3.86674    89.64299     2.04745     3.86674
    11.90000    90.35700   357.95266     3.86684    89.64300     2.04734     3.86684
    12.00000    90.35699   357.95277     3.86694    89.64301     2.04723     3.86694
    12.10000    90.35697   357.95288     3.86704    89.64303     2.04712     3.86704
    12.20000    90.35696   357.95298     3.86713    89.64304     2.04702     3.86713
    12.30000    90.35695   357.95309     3.86723    89.64305     2.04691     3.86723
    12.40000    90.35694   357.95320     3.86733    89.64306     2.04680     3.86733
    12.50000    90.35693   357.95331     3.86743    89.64307     2.04669     3.86743
    12.60000    90.35691   357.95342     3.86752    89.64309     2.04658     3.86752
    12.70000    90.35690   357.95353     3.86762    89.64310     2.04647     3.86762
    12.80000    90.35689   357.95364     3.86772    89.64311     2.04636     3.86772
    12.90000    90.35688   357.95374     3.86782    89.64312     2.04626     3.86782
    13.00000    90.35686   357.95385     3.86792    89.64314     2.04615     3.86792
    13.10000    90.35685   357.95396     3.86801    89.64315     2.04604     3.86801
    13.20000    90.35684   357.95407     3.86811    89.64316     2.04593     3.86811
    13.30000    90.35683   357.95418     3.86821    89.64317     2.04582     3.86821
    13.40000    90.35681   357.95429     3.86831    89.64319     2.04571     3.86831
    13.50000    90.35680   357.95440     3.86840    89.64320     2.04560     3.86840
    13.60000    90.35679   357.95450     3.86850    89.64321     2.04550     3.86850
    13.70000    90.35678   357.95461     3.86860    89.64322     2.04539     3.86860
    13.80000    90.35677   357.95472     3.86870    89.64323     2.04528     3.86870
    13.90000    90.35675   357.95483     3.86879    89.64325     2.04517     3.86879
    14.00000    90.35674   357.95494     3.86889    89.64326     2.04506     3.86889
    14.10000    90.35673   357.95505     3.86899    89.64327     2.04495     3.86899
    14.20000    90.35672   357.95515     3.86908    89.64328     2.04485     3.86908
    14.30000    90.35670   357.95526     3.86918    89.64330     2.04474     3.86918
    14.40000    90.35669   357.95537     3.86928    89.64331     2.04463     3.86928
    14.50000    90.35668   357.95548     3.86938    89.64332     2.04452     3.86938
    14.60000    90.35667   357.95559     3.86947    89.64333     2.04441     3.86947
    14.70000    90.35665   357.95570     3.86957    89.64335     2.04430     3.86957
    14.80000    90.35664   357.95580     3.86967    89.64336     2.04420     3.86967
    14.90000    90.35663   357.95591     3.86976    89.64337     2.04409     3.86976
    15.00000    90.35662   357.95602     3.86986    89.64338     2.04398     3.86986
    15.10000    90.35661   357.95613     3.86996    89.64339     2.04387     3.86996
    15.20000    90.35659   357.95624     3.87006    89.64341     2.04376     3.87006
    15.30000    90.35658   357.95635     3.87015    89.64342     2.04365     3.87015
    15.40000    90.35657   357.95645     3.87025    89.64343     2.04355     3.87025
    15.50000    90.35656   357.95656     3.87035    89.64344     2.04344     3.87035
    15.60000    90.35654   357.95667     3.87044    89.64346     2.04333     3.87044
    15.70000    90.35653   357.95678     3.87054    89.64347     2.04322     3.87054
    15.80000    90.35652   357.95689     3.87064    89.64348     2.04311     3.87064
    15.90000    90.35651   357.95699     3.87073    89.64349     2.04301     3.87073
    16.00000    90.35650   357.95710     3.87083    89.64350     2.04290     3.87083
    16.10000    90.35648   357.95721     3.87093    89.64352     2.04279     3.87093
    16.20000    90.35647   357.95732     3.87102    89.64353     2.04268     3.87102
    16.30000    90.35646   357.95743     3.87112    89.64354     2.04257     3.87112
    16.40000    90.35645   357.95753     3.87122    89.64355     2.04247     3.87122
    16.50000    90.35643   357.95764     3.87131    89.64357     2.04236     3.87131
    16.60000    90.35642   357.95775     3.87141    89.64358     2.04225     3.87141
    16.70000    90.35641   357.95786     3.87151    89.64359     2.04214     3.87151
    16.80000    90.35640   357.95796     3.87160    89.64360     2.04204     3.87160
    16.90000    90.35638   357.95807     3.87170    89.64362     2.04193     3.87170
    17.00000    90.35637   357.95818     3.87180    89.64363     2.04182     3.87180
    17.10000    90.35636   357.95829     3.87189    89.64364     2.04171     3.87189
    17.20000    90.35635   357.95840     3.87199    89.64365     2.04160     3.87199
    17.30000    90.35634   357.95850     3.87208    89.64366     2.04150     3.87208
    17.40000    90.35632   357.95861     3.87218    89.64368     2.04139     3.87218
    17.50000    90.35631   357.95872     3.87228    89.64369     2.04128     3.87228
    17.60000    90.35630   357.95883     3.87237    89.64370     2.04117     3.87237
    17.70000    90.35629   357.95893     3.87247    89.64371     2.04107     3.87247
    17.80000    90.35627   357.95904     3.87256    89.64373     2.04096     3.87256
    17.90000    90.35626   357.95915     3.87266    89.64374     2.04085     3.87266
    18.00000    90.35625   357.95926     3.87276    89.64375     2.04074     3.87276
    18.10000    90.35624   357.95936     3.87285    89.64376     2.04064     3.87285
    18.20000    90.35622   357.95947     3.87295    89.64378     2.04053     3.87295
    18.30000    90.35621   357.95958     3.87305    89.64379     2.04042     3.87305
    18.40000    90.35620   357.95969     3.87314    89.64380     2.04031     3.87314
    18.50000    90.35619   357.95979     3.87324    89.64381     2.04021     3.87324
    18.60000    90.35618   357.95990     3.87333    89.64382     2.04010     3.87333
    18.70000    90.35616   357.96001     3.87343    89.64384     2.03999     3.87343
    18.80000    90.35615   357.96012     3.87352    89.64385     2.03988     3.87352
    18.90000    90.35614   357.96022     3.87362    89.64386     2.03978     3.87362
    19.00000    90.35613   357.96033     3.87372    89.64387     2.03967     3.87372
    19.10000    90.35611   357.96044     3.87381    89.64389     2.03956     3.87381
    19.20000    90.35610   357.96055     3.87391    89.64390     2.03945     3.87391
    19.30000    90.35609   357.96065     3.87400    89.64391     2.03935     3.87400
    19.40000    90.35608   357.96076     3.87410    89.64392     2.03924     3.87410
    19.50000    90.35607   357.96087     3.87419    89.64393     2.03913     3.87419
    19.60000    90.35605   357.96098     3.87429    89.64395     2.03902     3.87429
    19.70000    90.35604   357.96108     3.87439    89.64396     2.03892     3.87439
    19.80000    90.35603   357.96119     3.87448    89.64397     2.03881     3.87448
    19.90000    90.35602   357.96130     3.87458    89.64398     2.03870     3.87458
    20.00000    90.35600   357.96141     3.87467    89.64400     2.03859     3.87467
    20.10000    90.35599   357.96151     3.87477    89.64401     2.03849     3.87477
    20.20000    90.35598   357.96162     3.87486    89.64402     2.03838     3.87486
    20.30000    90.35597   357.96173     3.87496    89.64403     2.03827     3.87496
    20.40000    90.35596   357.96183     3.87505    89.64404     2.03817     3.87505
    20.50000    90.35594   357.96194     3.87515    89.64406     2.03806     3.87515
    20.60000    90.35593   357.96205     3.87524    89.64407     2.03795     3.87524
    20.70000    90.35592   357.96216     3.87534    89.64408     2.03784     3.87534
    20.80000    90.35591   357.96226     3.87543    89.64409     2.03774     3.87543
    20.90000    90.35589   357.96237     3.87553    89.64411     2.03763     3.87553
    21.00000    90.35588   357.96248     3.87562    89.64412     2.03752     3.87562
    21.10000    90.35587   357.96258     3.87572    89.64413     2.03742     3.87572
    21.20000    90.35586   357.96269     3.87581    89.64414     2.03731     3.87581
    21.30000    90.35584   357.96280     3.87591    89.64416     2.03720     3.87591
    21.40000    90.35583   357.96290     3.87600    89.64417     2.03710     3.87600
    21.50000    90.35582   357.96301     3.87610    89.64418     2.03699     3.87610
    21.60000    90.35581   357.96312     3.87619    89.64419     2.03688     3.87619
    21.70000    90.35580   357.96322     3.87629    89.64420     2.03678     3.87629
    21.80000    90.35578   357.96333     3.87638    89.64422     2.03667     3.87638
    21.90000    90.35577   357.96344     3.87648    89.64423     2.03656     3.87648
    22.00000    90.35576   357.96355     3.87657    89.64424     2.03645     3.87657
    22.10000    90.35575   357.96365     3.87667    89.64425     2.03635     3.87667
    22.20000    90.35573   357.96376     3.87676    89.64427     2.03624     3.87676
    22.30000    90.35572   357.96387     3.87686    89.64428     2.03613     3.87686
    22.40000    90.35571   357.96397     3.87695    89.64429     2.03603     3.87695
    22.50000    90.35570   357.96408     3.87705    89.64430     2.03592     3.87705
    22.60000    90.35569   357.96419     3.87714    89.64431     2.03581     3.87714
    22.70000    90.35567   357.96429     3.87724    89.64433     2.03571     3.87724
    22.80000    90.35566   357.96440     3.87733    89.64434     2.03560     3.87733
    22.90000    90.35565   357.96451     3.87743    89.64435     2.03549     3.87743
    23.00000    90.35564   357.96461     3.87752    89.64436     2.03539     3.87752
    23.10000    90.35562   357.96472     3.87761    89.64438     2.03528     3.87761
    23.20000    90.35561   357.96483     3.87771    89.64439     2.03517     3.87771
    23.30000    90.35560   357.96493     3.87780    89.64440     2.03507     3.87780
