 # applied field (T), theta (degree), phi (degree), abs for RE 1-2
     0.00000    90.00000    45.41885     4.65111    90.00000    45.41885     4.65111
     0.10000    89.87471    45.41885     4.65111    89.87471    45.41885     4.65111
     0.20000    89.71874    44.58115     4.65110    89.71874    44.58115     4.65110
     0.30000    89.59344    44.58115     4.65110    89.59344    44.58115     4.65110
     0.40000    89.43745    45.41886     4.65109    89.43745    45.41886     4.65109
     0.50000    89.31214    44.58114     4.65109    89.31214    44.58114     4.65109
     0.60000    89.15613    44.58114     4.65108    89.15613    44.58114     4.65108
     0.70000    89.03079    45.41886     4.65107    89.03079    45.41886     4.65107
     0.80000    88.90544    45.41886     4.65106    88.90544    45.41886     4.65106
     0.90000    88.74938    44.58114     4.65105    88.74938    44.58114     4.65105
     1.00000    88.62399    44.58114     4.65103    88.62399    44.58114     4.65103
     1.10000    88.46787    44.58113     4.65102    88.46787    44.58113     4.65102
     1.20000    88.34243    45.41887     4.65100    88.34243    45.41887     4.65100
     1.30000    88.21697    45.41887     4.65098    88.21697    45.41887     4.65098
     1.40000    88.06076    45.41888     4.65096    88.06076    45.41888     4.65096
     1.50000    87.93524    45.41888     4.65094    87.93524    45.41888     4.65094
     1.60000    87.77895    45.41888     4.65092    87.77895    45.41888     4.65092
     1.70000    87.65336    44.58111     4.65089    87.65336    44.58111     4.65089
     1.80000    87.52774    45.41889     4.65087    87.52774    45.41889     4.65087
     1.90000    87.37131    45.41889     4.65084    87.37131    45.41889     4.65084
     2.00000    87.24560    44.58110     4.65081    87.24560    44.58110     4.65081
     2.10000    87.08907    44.58110     4.65078    87.08907    44.58110     4.65078
     2.20000    86.96327    45.41891     4.65075    86.96327    45.41891     4.65075
     2.30000    86.83744    44.58109     4.65072    86.83744    44.58109     4.65072
     2.40000    86.68072    44.58108     4.65068    86.68072    44.58108     4.65068
     2.50000    86.55478    44.58108     4.65065    86.55478    44.58108     4.65065
     2.60000    86.42879    45.41893     4.65061    86.42879    45.41893     4.65061
     2.70000    86.27189    45.00000     4.65057    86.27189    45.00000     4.65057
     2.80000    86.14578    45.00000     4.65053    86.14578    45.00000     4.65053
     2.90000    86.01962    45.00000     4.65049    86.01962    45.00000     4.65049
     3.00000    85.86248    45.00000     4.65044    85.86248    45.00000     4.65044
     3.10000    85.73619    45.00000     4.65040    85.73619    45.00000     4.65040
     3.20000    85.57889    45.00000     4.65035    85.57889    45.00000     4.65035
     3.30000    85.45245    45.00000     4.65031    85.45245    45.00000     4.65031
     3.40000    85.32596    45.00000     4.65026    85.32596    45.00000     4.65026
     3.50000    85.19939    45.00000     4.65021    85.19939    45.00000     4.65021
     3.60000    85.04174    45.00000     4.65015    85.04174    45.00000     4.65015
     3.70000    84.91502    45.00000     4.65011    84.91502    45.00000     4.65011
     3.80000    84.78822    45.00000     4.65005    84.78822    45.00000     4.65005
     3.90000    84.63027    45.00000     4.64999    84.63027    45.00000     4.64999
     4.00000    84.50331    45.00000     4.64994    84.50331    45.00000     4.64994
     4.10000    84.37626    45.00000     4.64988    84.37626    45.00000     4.64988
     4.20000    84.21798    44.57282     4.64981    84.21798    44.57282     4.64981
     4.30000    84.09075    44.57281     4.64975    84.09075    44.57281     4.64975
     4.40000    83.96344    44.57280     4.64970    83.96344    44.57280     4.64970
     4.50000    83.83604    44.57279     4.64964    83.83604    44.57279     4.64964
     4.60000    83.67732    45.42722     4.64956    83.67732    45.42722     4.64956
     4.70000    83.54971    44.57277     4.64950    83.54971    44.57277     4.64950
     4.80000    83.42202    44.57276     4.64943    83.42202    44.57276     4.64943
     4.90000    83.29423    44.57275     4.64937    83.29423    44.57275     4.64937
     5.00000    83.16634    45.42726     4.64930    83.16634    45.42726     4.64930
     5.10000    83.00700    44.57273     4.64922    83.00700    44.57273     4.64922
     5.20000    82.87889    44.57272     4.64915    82.87889    44.57272     4.64915
     5.30000    82.75069    45.00000     4.64908    82.75069    45.00000     4.64908
     5.40000    82.62237    45.00000     4.64901    82.62237    45.00000     4.64901
     5.50000    82.49395    45.00000     4.64893    82.49395    45.00000     4.64893
     5.60000    82.33393    45.00000     4.64884    82.33393    45.00000     4.64884
     5.70000    82.20526    45.00000     4.64876    82.20526    45.00000     4.64876
     5.80000    82.07647    45.00000     4.64869    82.07647    45.00000     4.64869
     5.90000    81.94757    45.00000     4.64861    81.94757    45.00000     4.64861
     6.00000    81.81856    45.00000     4.64853    81.81856    45.00000     4.64853
     6.10000    81.68942    45.00000     4.64845    81.68942    45.00000     4.64845
     6.20000    81.56017    45.00000     4.64836    81.56017    45.00000     4.64836
     6.30000    81.39907    45.43588     4.64826    81.39907    45.43588     4.64826
     6.40000    81.26954    44.56411     4.64817    81.26954    44.56411     4.64817
     6.50000    81.13988    45.43591     4.64809    81.13988    45.43591     4.64809
     6.60000    81.01010    44.56408     4.64800    81.01010    44.56408     4.64800
     6.70000    80.88018    44.56407     4.64791    80.88018    44.56407     4.64791
     6.80000    80.75013    44.56405     4.64782    80.75013    44.56405     4.64782
     6.90000    80.61994    45.43596     4.64773    80.61994    45.43596     4.64773
     7.00000    80.48962    44.56402     4.64763    80.48962    44.56402     4.64763
     7.10000    80.35919    45.00000     4.64754    80.35919    45.00000     4.64754
     7.20000    80.22859    45.00000     4.64744    80.22859    45.00000     4.64744
     7.30000    80.09785    45.00000     4.64735    80.09785    45.00000     4.64735
     7.40000    79.96696    45.00000     4.64725    79.96696    45.00000     4.64725
     7.50000    79.83593    45.00000     4.64715    79.83593    45.00000     4.64715
     7.60000    79.70475    45.00000     4.64705    79.70475    45.00000     4.64705
     7.70000    79.57341    45.00000     4.64694    79.57341    45.00000     4.64694
     7.80000    79.47414    45.00000     4.64687    79.47414    45.00000     4.64687
     7.90000    79.31027    44.55508     4.64673    79.31027    44.55508     4.64673
     8.00000    79.17847    45.44494     4.64663    79.17847    45.44494     4.64663
     8.10000    79.04652    44.55504     4.64652    79.04652    44.55504     4.64652
     8.20000    78.91440    45.44497     4.64641    78.91440    45.44497     4.64641
     8.30000    78.78213    45.44499     4.64630    78.78213    45.44499     4.64630
     8.40000    78.64969    45.44501     4.64619    78.64969    45.44501     4.64619
     8.50000    78.48461    45.00000     4.64605    78.48461    45.00000     4.64605
     8.60000    78.41686    45.00000     4.64599    78.41686    45.00000     4.64599
     8.70000    78.28396    45.00000     4.64587    78.28396    45.00000     4.64587
     8.80000    78.15088    45.00000     4.64576    78.15088    45.00000     4.64576
     8.90000    78.01763    45.00000     4.64564    78.01763    45.00000     4.64564
     9.00000    77.88420    45.00000     4.64552    77.88420    45.00000     4.64552
     9.10000    77.78333    45.00000     4.64543    77.78333    45.00000     4.64543
     9.20000    77.64959    45.00000     4.64530    77.64959    45.00000     4.64530
     9.30000    77.51563    45.45434     4.64518    77.51563    45.45434     4.64518
     9.40000    77.38153    45.45436     4.64506    77.38153    45.45436     4.64506
     9.50000    77.24723    44.54562     4.64493    77.24723    44.54562     4.64493
     9.60000    77.14570    44.54561     4.64483    77.14570    44.54561     4.64483
     9.70000    77.01107    44.54559     4.64470    77.01107    44.54559     4.64470
     9.80000    76.87625    44.54557     4.64457    76.87625    44.54557     4.64457
     9.90000    76.74127    45.00000     4.64444    76.74127    45.00000     4.64444
    10.00000    76.63919    45.00000     4.64434    76.63919    45.00000     4.64434
    10.10000    76.50383    45.00000     4.64421    76.50383    45.00000     4.64421
    10.20000    76.36828    45.00000     4.64407    76.36828    45.00000     4.64407
    10.30000    76.26578    45.00000     4.64397    76.26578    45.00000     4.64397
    10.40000    76.12986    45.00000     4.64383    76.12986    45.00000     4.64383
    10.50000    76.02709    45.00000     4.64373    76.02709    45.00000     4.64373
    10.60000    75.89078    44.53584     4.64359    75.89078    44.53584     4.64359
    10.70000    75.75429    45.46418     4.64344    75.75429    45.46418     4.64344
    10.80000    75.61759    44.53580     4.64330    75.61759    44.53580     4.64330
    10.90000    75.51422    44.53578     4.64319    75.51422    44.53578     4.64319
    11.00000    75.37715    45.46424     4.64305    75.37715    45.46424     4.64305
    11.10000    75.23989    45.00000     4.64290    75.23989    45.00000     4.64290
    11.20000    75.13607    45.00000     4.64279    75.13607    45.00000     4.64279
    11.30000    74.99838    45.00000     4.64264    74.99838    45.00000     4.64264
    11.40000    74.89427    45.00000     4.64252    74.89427    45.00000     4.64252
    11.50000    74.75619    45.00000     4.64237    74.75619    45.00000     4.64237
    11.60000    74.65177    45.00000     4.64226    74.65177    45.00000     4.64226
    11.70000    74.54722    45.00000     4.64214    74.54722    45.00000     4.64214
    11.80000    74.40852    45.47440     4.64198    74.40852    45.47440     4.64198
    11.90000    74.26964    45.47442     4.64183    74.26964    45.47442     4.64183
    12.00000    74.16460    44.52556     4.64171    74.16460    44.52556     4.64171
    12.10000    74.02530    44.52553     4.64155    74.02530    44.52553     4.64155
    12.20000    73.91994    44.52551     4.64142    73.91994    44.52551     4.64142
    12.30000    73.78026    45.00000     4.64126    73.78026    45.00000     4.64126
    12.40000    73.67458    45.00000     4.64114    73.67458    45.00000     4.64114
    12.50000    73.56877    45.00000     4.64102    73.56877    45.00000     4.64102
    12.60000    73.42842    45.00000     4.64085    73.42842    45.00000     4.64085
    12.70000    73.32228    45.00000     4.64072    73.32228    45.00000     4.64072
    12.80000    73.18149    45.00000     4.64055    73.18149    45.00000     4.64055
    12.90000    73.07497    44.51492     4.64042    73.07497    44.51492     4.64042
    13.00000    72.96834    44.51490     4.64030    72.96834    44.51490     4.64030
    13.10000    72.82691    45.48513     4.64012    72.82691    45.48513     4.64012
    13.20000    72.71994    45.48515     4.63999    72.71994    45.48515     4.63999
    13.30000    72.61283    44.51483     4.63986    72.61283    44.51483     4.63986
    13.40000    72.43595    45.00000     4.63964    72.43595    45.00000     4.63964
    13.50000    72.36332    45.00000     4.63955    72.36332    45.00000     4.63955
    13.60000    72.25570    45.00000     4.63942    72.25570    45.00000     4.63942
    13.70000    72.14792    45.00000     4.63928    72.14792    45.00000     4.63928
    13.80000    72.00496    45.00000     4.63910    72.00496    45.00000     4.63910
    13.90000    71.89682    45.00000     4.63896    71.89682    45.00000     4.63896
    14.00000    71.82366    45.00000     4.63887    71.82366    45.00000     4.63887
    14.10000    71.68003    44.50373     4.63868    71.68003    44.50373     4.63868
    14.20000    71.53616    45.49630     4.63850    71.53616    45.49630     4.63850
    14.30000    71.42734    45.49632     4.63835    71.42734    45.49632     4.63835
    14.40000    71.31835    45.49634     4.63821    71.31835    45.49634     4.63821
    14.50000    71.20920    44.50363     4.63807    71.20920    44.50363     4.63807
    14.60000    71.09994    45.00000     4.63793    71.09994    45.00000     4.63793
    14.70000    70.95492    45.00000     4.63773    70.95492    45.00000     4.63773
    14.80000    70.84523    45.00000     4.63759    70.84523    45.00000     4.63759
    14.90000    70.73536    45.00000     4.63744    70.73536    45.00000     4.63744
    15.00000    70.62533    45.00000     4.63729    70.62533    45.00000     4.63729
    15.10000    70.55088    45.00000     4.63719    70.55088    45.00000     4.63719
    15.20000    70.40470    44.49204     4.63699    70.40470    44.49204     4.63699
    15.30000    70.29415    45.50798     4.63684    70.29415    45.50798     4.63684
    15.40000    70.18343    45.50801     4.63669    70.18343    45.50801     4.63669
    15.50000    70.07254    45.50803     4.63654    70.07254    45.50803     4.63654
    15.60000    69.96147    45.50806     4.63638    69.96147    45.50806     4.63638
    15.70000    69.85028    45.00000     4.63623    69.85028    45.00000     4.63623
    15.80000    69.73885    45.00000     4.63608    69.73885    45.00000     4.63608
    15.90000    69.62725    45.00000     4.63592    69.62725    45.00000     4.63592
    16.00000    69.51547    45.00000     4.63576    69.51547    45.00000     4.63576
    16.10000    69.40351    45.00000     4.63561    69.40351    45.00000     4.63561
    16.20000    69.29137    45.00000     4.63545    69.29137    45.00000     4.63545
    16.30000    69.17898    44.47980     4.63529    69.17898    44.47980     4.63529
    16.40000    69.06647    45.52022     4.63513    69.06647    45.52022     4.63513
    16.50000    68.95378    44.47975     4.63497    68.95378    44.47975     4.63497
    16.60000    68.84089    45.52028     4.63480    68.84089    45.52028     4.63480
    16.70000    68.72782    44.47969     4.63464    68.72782    44.47969     4.63464
    16.80000    68.61462    45.00000     4.63448    68.61462    45.00000     4.63448
    16.90000    68.50117    45.00000     4.63431    68.50117    45.00000     4.63431
    17.00000    68.38753    45.00000     4.63415    68.38753    45.00000     4.63415
    17.10000    68.27369    45.00000     4.63398    68.27369    45.00000     4.63398
    17.20000    68.15966    45.00000     4.63381    68.15966    45.00000     4.63381
    17.30000    68.08251    45.00000     4.63370    68.08251    45.00000     4.63370
    17.40000    67.96809    45.53303     4.63353    67.96809    45.53303     4.63353
    17.50000    67.85354    44.46694     4.63336    67.85354    44.46694     4.63336
    17.60000    67.73879    44.46691     4.63319    67.73879    44.46691     4.63319
    17.70000    67.62384    44.46688     4.63302    67.62384    44.46688     4.63302
    17.80000    67.47136    45.00000     4.63279    67.47136    45.00000     4.63279
    17.90000    67.43083    45.00000     4.63273    67.43083    45.00000     4.63273
    18.00000    67.31534    45.00000     4.63255    67.31534    45.00000     4.63255
    18.10000    67.19965    45.00000     4.63238    67.19965    45.00000     4.63238
    18.20000    67.08375    45.00000     4.63220    67.08375    45.00000     4.63220
    18.30000    67.00533    45.00000     4.63208    67.00533    45.00000     4.63208
    18.40000    66.88908    45.00000     4.63190    66.88908    45.00000     4.63190
    18.50000    66.77257    45.54651     4.63172    66.77257    45.54651     4.63172
    18.60000    66.65590    45.54654     4.63154    66.65590    45.54654     4.63154
    18.70000    66.57696    44.45344     4.63142    66.57696    44.45344     4.63142
    18.80000    66.45994    44.45341     4.63124    66.45994    44.45341     4.63124
    18.90000    66.34271    44.45338     4.63106    66.34271    44.45338     4.63106
    19.00000    66.26345    45.00000     4.63094    66.26345    45.00000     4.63094
    19.10000    66.14586    45.00000     4.63075    66.14586    45.00000     4.63075
    19.20000    66.02805    45.00000     4.63057    66.02805    45.00000     4.63057
    19.30000    65.94833    45.00000     4.63044    65.94833    45.00000     4.63044
    19.40000    65.83016    45.00000     4.63026    65.83016    45.00000     4.63026
    19.50000    65.75019    45.00000     4.63013    65.75019    45.00000     4.63013
    19.60000    65.63158    45.56066     4.62994    65.63158    45.56066     4.62994
    19.70000    65.51281    45.56069     4.62975    65.51281    45.56069     4.62975
    19.80000    65.43245    45.56071     4.62962    65.43245    45.56071     4.62962
    19.90000    65.31330    44.43926     4.62943    65.31330    44.43926     4.62943
    20.00000    65.19394    44.43922     4.62924    65.19394    44.43922     4.62924
    20.10000    65.11323    45.00000     4.62911    65.11323    45.00000     4.62911
    20.20000    64.99348    45.00000     4.62892    64.99348    45.00000     4.62892
    20.30000    64.91244    45.00000     4.62879    64.91244    45.00000     4.62879
    20.40000    64.79231    45.00000     4.62860    64.79231    45.00000     4.62860
    20.50000    64.71101    45.00000     4.62846    64.71101    45.00000     4.62846
    20.60000    64.59049    45.00000     4.62827    64.59049    45.00000     4.62827
    20.70000    64.50886    44.42446     4.62813    64.50886    44.42446     4.62813
    20.80000    64.38794    44.42443     4.62794    64.38794    44.42443     4.62794
    20.90000    64.30611    44.42440     4.62780    64.30611    44.42440     4.62780
    21.00000    64.18479    45.57563     4.62761    64.18479    45.57563     4.62761
    21.10000    64.10270    45.57566     4.62747    64.10270    45.57566     4.62747
    21.20000    63.98105    45.00000     4.62727    63.98105    45.00000     4.62727
    21.30000    63.89868    45.00000     4.62713    63.89868    45.00000     4.62713
    21.40000    63.81620    45.00000     4.62700    63.81620    45.00000     4.62700
    21.50000    63.69392    45.00000     4.62680    63.69392    45.00000     4.62680
    21.60000    63.61116    45.00000     4.62666    63.61116    45.00000     4.62666
    21.70000    63.48846    45.00000     4.62645    63.48846    45.00000     4.62645
    21.80000    63.44532    45.00000     4.62638    63.44532    45.00000     4.62638
    21.90000    63.32221    45.59124     4.62617    63.32221    45.59124     4.62617
    22.00000    63.19892    45.59128     4.62597    63.19892    45.59128     4.62597
    22.10000    63.11550    44.40870     4.62583    63.11550    44.40870     4.62583
    22.20000    63.03195    44.40867     4.62569    63.03195    44.40867     4.62569
    22.30000    62.86790    45.00000     4.62541    62.86790    45.00000     4.62541
    22.40000    62.82432    45.00000     4.62534    62.82432    45.00000     4.62534
    22.50000    62.74037    45.00000     4.62520    62.74037    45.00000     4.62520
    22.60000    62.61589    45.00000     4.62499    62.61589    45.00000     4.62499
    22.70000    62.53165    45.00000     4.62484    62.53165    45.00000     4.62484
    22.80000    62.44730    45.00000     4.62470    62.44730    45.00000     4.62470
    22.90000    62.32221    45.00000     4.62449    62.32221    45.00000     4.62449
    23.00000    62.23748    45.60777     4.62434    62.23748    45.60777     4.62434
    23.10000    62.15271    44.39220     4.62420    62.15271    44.39220     4.62420
    23.20000    62.02700    44.39216     4.62398    62.02700    44.39216     4.62398
    23.30000    61.94193    45.60787     4.62384    61.94193    45.60787     4.62384
