 # applied field (T), theta (degree), phi (degree), abs [muB/unitcell], abs [T]
       0.00000000       0.00000000       0.00000000      48.33101018       1.68301936
       0.10000000       3.21408664      45.00000000      48.33105018       1.68302075
       0.20000000       6.42813596      45.00000000      48.33116601       1.68302479
       0.30000000       9.64211356      45.00000000      48.33134554       1.68303104
       0.40000000      13.31500902      45.00000000      48.33160148       1.68303995
       0.50000000      17.21724570      45.00000000      48.33189152       1.68305005
       0.60000000      22.03724306      45.00000000      48.33219197       1.68306051
       0.70000000      90.00000000      45.00000000      48.31735305       1.68254378
       0.80000000      90.00000000      45.00000000      48.31742190       1.68254618
       0.90000000      90.00000000      45.00000000      48.31749076       1.68254858
       1.00000000      90.00000000      45.00000000      48.31755964       1.68255097
       1.10000000      90.00000000      45.00000000      48.31762852       1.68255337
       1.20000000      90.00000000      45.00000000      48.31769743       1.68255577
       1.30000000      90.00000000      45.00000000      48.31776634       1.68255817
       1.40000000      90.00000000      45.00000000      48.31783527       1.68256057
       1.50000000      90.00000000      45.00000000      48.31790420       1.68256297
       1.60000000      90.00000000      45.00000000      48.31797316       1.68256537
       1.70000000      90.00000000      45.00000000      48.31804212       1.68256778
       1.80000000      90.00000000      45.00000000      48.31811110       1.68257018
       1.90000000      90.00000000      45.00000000      48.31818008       1.68257258
       2.00000000      90.00000000      45.00000000      48.31824909       1.68257498
       2.10000000      90.00000000      45.00000000      48.31831810       1.68257739
       2.20000000      90.00000000      45.00000000      48.31838713       1.68257979
       2.30000000      90.00000000      45.00000000      48.31845617       1.68258219
       2.40000000      90.00000000      45.00000000      48.31852522       1.68258460
       2.50000000      90.00000000      45.00000000      48.31859428       1.68258700
       2.60000000      90.00000000      45.00000000      48.31866336       1.68258941
       2.70000000      90.00000000      45.00000000      48.31873245       1.68259182
       2.80000000      90.00000000      45.00000000      48.31880155       1.68259422
       2.90000000      90.00000000      45.00000000      48.31887066       1.68259663
       3.00000000      90.00000000      45.00000000      48.31893979       1.68259904
       3.10000000      90.00000000      45.00000000      48.31900893       1.68260144
       3.20000000      90.00000000      45.00000000      48.31907808       1.68260385
       3.30000000      90.00000000      45.00000000      48.31914725       1.68260626
       3.40000000      90.00000000      45.00000000      48.31921642       1.68260867
       3.50000000      90.00000000      45.00000000      48.31928561       1.68261108
       3.60000000      90.00000000      45.00000000      48.31935482       1.68261349
       3.70000000      90.00000000      45.00000000      48.31942403       1.68261590
       3.80000000      90.00000000      45.00000000      48.31949326       1.68261831
       3.90000000      90.00000000      45.00000000      48.31956250       1.68262072
       4.00000000      90.00000000      45.00000000      48.31963175       1.68262313
       4.10000000      90.00000000      45.00000000      48.31970102       1.68262554
       4.20000000      90.00000000      45.00000000      48.31977029       1.68262796
       4.30000000      90.00000000      45.00000000      48.31983959       1.68263037
       4.40000000      90.00000000      45.00000000      48.31990889       1.68263278
       4.50000000      90.00000000      45.00000000      48.31997820       1.68263520
       4.60000000      90.00000000      45.00000000      48.32004753       1.68263761
       4.70000000      90.00000000      45.00000000      48.32011687       1.68264002
       4.80000000      90.00000000      45.00000000      48.32018623       1.68264244
       4.90000000      90.00000000      45.00000000      48.32025559       1.68264486
       5.00000000      90.00000000      45.00000000      48.32032497       1.68264727
       5.10000000      90.00000000      45.00000000      48.32039437       1.68264969
       5.20000000      90.00000000      45.00000000      48.32046377       1.68265210
       5.30000000      90.00000000      45.00000000      48.32053319       1.68265452
       5.40000000      90.00000000      45.00000000      48.32060262       1.68265694
       5.50000000      90.00000000      45.00000000      48.32067206       1.68265936
       5.60000000      90.00000000      45.00000000      48.32074151       1.68266178
       5.70000000      90.00000000      45.00000000      48.32081098       1.68266420
       5.80000000      90.00000000      45.00000000      48.32088046       1.68266662
       5.90000000      90.00000000      45.00000000      48.32094996       1.68266904
       6.00000000      90.00000000      45.00000000      48.32101946       1.68267146
       6.10000000      90.00000000      45.00000000      48.32108898       1.68267388
       6.20000000      90.00000000      45.00000000      48.32115851       1.68267630
       6.30000000      90.00000000      45.00000000      48.32122805       1.68267872
       6.40000000      90.00000000      45.00000000      48.32129761       1.68268114
       6.50000000      90.00000000      45.00000000      48.32136718       1.68268356
       6.60000000      90.00000000      45.00000000      48.32143676       1.68268599
       6.70000000      90.00000000      45.00000000      48.32150636       1.68268841
       6.80000000      90.00000000      45.00000000      48.32157596       1.68269083
       6.90000000      90.00000000      45.00000000      48.32164558       1.68269326
       7.00000000      90.00000000      45.00000000      48.32171522       1.68269568
       7.10000000      90.00000000      45.00000000      48.32178486       1.68269811
       7.20000000      90.00000000      45.00000000      48.32185452       1.68270053
       7.30000000      90.00000000      45.00000000      48.32192419       1.68270296
       7.40000000      90.00000000      45.00000000      48.32199388       1.68270539
       7.50000000      90.00000000      45.00000000      48.32206357       1.68270781
       7.60000000      90.00000000      45.00000000      48.32213328       1.68271024
       7.70000000      90.00000000      45.00000000      48.32220300       1.68271267
       7.80000000      90.00000000      45.00000000      48.32227274       1.68271510
       7.90000000      90.00000000      45.00000000      48.32234248       1.68271753
       8.00000000      90.00000000      45.00000000      48.32241224       1.68271996
       8.10000000      90.00000000      45.00000000      48.32248202       1.68272239
       8.20000000      90.00000000      45.00000000      48.32255180       1.68272482
       8.30000000      90.00000000      45.00000000      48.32262160       1.68272725
       8.40000000      90.00000000      45.00000000      48.32269141       1.68272968
       8.50000000      90.00000000      45.00000000      48.32276124       1.68273211
       8.60000000      90.00000000      45.00000000      48.32283107       1.68273454
       8.70000000      90.00000000      45.00000000      48.32290092       1.68273697
       8.80000000      90.00000000      45.00000000      48.32297078       1.68273941
       8.90000000      90.00000000      45.00000000      48.32304066       1.68274184
       9.00000000      90.00000000      45.00000000      48.32311055       1.68274427
       9.10000000      90.00000000      45.00000000      48.32318045       1.68274671
       9.20000000      90.00000000      45.00000000      48.32325036       1.68274914
       9.30000000      90.00000000      45.00000000      48.32332029       1.68275158
       9.40000000      90.00000000      45.00000000      48.32339023       1.68275401
       9.50000000      90.00000000      45.00000000      48.32346018       1.68275645
       9.60000000      90.00000000      45.00000000      48.32353014       1.68275888
       9.70000000      90.00000000      45.00000000      48.32360012       1.68276132
       9.80000000      90.00000000      45.00000000      48.32367011       1.68276376
       9.90000000      90.00000000      45.00000000      48.32374011       1.68276620
      10.00000000      90.00000000      45.00000000      48.32381013       1.68276863
      10.10000000      90.00000000      45.00000000      48.32388016       1.68277107
      10.20000000      90.00000000      45.00000000      48.32395020       1.68277351
      10.30000000      90.00000000      45.00000000      48.32402025       1.68277595
      10.40000000      90.00000000      45.00000000      48.32409032       1.68277839
      10.50000000      90.00000000      45.00000000      48.32416040       1.68278083
      10.60000000      90.00000000      45.00000000      48.32423049       1.68278327
      10.70000000      90.00000000      45.00000000      48.32430060       1.68278571
      10.80000000      90.00000000      45.00000000      48.32437072       1.68278816
      10.90000000      90.00000000      45.00000000      48.32444085       1.68279060
      11.00000000      90.00000000      45.00000000      48.32451099       1.68279304
      11.10000000      90.00000000      45.00000000      48.32458115       1.68279548
      11.20000000      90.00000000      45.00000000      48.32465132       1.68279793
      11.30000000      90.00000000      45.00000000      48.32472150       1.68280037
      11.40000000      90.00000000      45.00000000      48.32479170       1.68280282
      11.50000000      90.00000000      45.00000000      48.32486191       1.68280526
      11.60000000      90.00000000      45.00000000      48.32493213       1.68280771
      11.70000000      90.00000000      45.00000000      48.32500236       1.68281015
      11.80000000      90.00000000      45.00000000      48.32507261       1.68281260
      11.90000000      90.00000000      45.00000000      48.32514287       1.68281504
      12.00000000      90.00000000      45.00000000      48.32521314       1.68281749
      12.10000000      90.00000000      45.00000000      48.32528343       1.68281994
      12.20000000      90.00000000      45.00000000      48.32535373       1.68282239
      12.30000000      90.00000000      45.00000000      48.32542404       1.68282484
      12.40000000      90.00000000      45.00000000      48.32549436       1.68282728
      12.50000000      90.00000000      45.00000000      48.32556470       1.68282973
      12.60000000      90.00000000      45.00000000      48.32563505       1.68283218
      12.70000000      90.00000000      45.00000000      48.32570542       1.68283463
      12.80000000      90.00000000      45.00000000      48.32577579       1.68283708
      12.90000000      90.00000000      45.00000000      48.32584618       1.68283954
      13.00000000      90.00000000      45.00000000      48.32591658       1.68284199
      13.10000000      90.00000000      45.00000000      48.32598700       1.68284444
      13.20000000      90.00000000      45.00000000      48.32605743       1.68284689
      13.30000000      90.00000000      45.00000000      48.32612787       1.68284934
      13.40000000      90.00000000      45.00000000      48.32619832       1.68285180
      13.50000000      90.00000000      45.00000000      48.32626879       1.68285425
      13.60000000      90.00000000      45.00000000      48.32633927       1.68285671
      13.70000000      90.00000000      45.00000000      48.32640976       1.68285916
      13.80000000      90.00000000      45.00000000      48.32648027       1.68286162
      13.90000000      90.00000000      45.00000000      48.32655079       1.68286407
      14.00000000      90.00000000      45.00000000      48.32662132       1.68286653
      14.10000000      90.00000000      45.00000000      48.32669186       1.68286898
      14.20000000      90.00000000      45.00000000      48.32676242       1.68287144
      14.30000000      90.00000000      45.00000000      48.32683299       1.68287390
      14.40000000      90.00000000      45.00000000      48.32690357       1.68287636
      14.50000000      90.00000000      45.00000000      48.32697417       1.68287881
      14.60000000      90.00000000      45.00000000      48.32704478       1.68288127
      14.70000000      90.00000000      45.00000000      48.32711540       1.68288373
      14.80000000      90.00000000      45.00000000      48.32718604       1.68288619
      14.90000000      90.00000000      45.00000000      48.32725669       1.68288865
      15.00000000      90.00000000      45.00000000      48.32732735       1.68289111
      15.10000000      90.00000000      45.00000000      48.32739802       1.68289357
      15.20000000      90.00000000      45.00000000      48.32746871       1.68289604
      15.30000000      90.00000000      45.00000000      48.32753941       1.68289850
      15.40000000      90.00000000      45.00000000      48.32761012       1.68290096
      15.50000000      90.00000000      45.00000000      48.32768085       1.68290342
      15.60000000      90.00000000      45.00000000      48.32775159       1.68290589
      15.70000000      90.00000000      45.00000000      48.32782234       1.68290835
      15.80000000      90.00000000      45.00000000      48.32789311       1.68291081
      15.90000000      90.00000000      45.00000000      48.32796389       1.68291328
      16.00000000      90.00000000      45.00000000      48.32803468       1.68291574
      16.10000000      90.00000000      45.00000000      48.32810548       1.68291821
      16.20000000      90.00000000      45.00000000      48.32817630       1.68292068
      16.30000000      90.00000000      45.00000000      48.32824713       1.68292314
      16.40000000      90.00000000      45.00000000      48.32831797       1.68292561
      16.50000000      90.00000000      45.00000000      48.32838883       1.68292808
      16.60000000      90.00000000      45.00000000      48.32845970       1.68293055
      16.70000000      90.00000000      45.00000000      48.32853058       1.68293301
      16.80000000      90.00000000      45.00000000      48.32860148       1.68293548
      16.90000000      90.00000000      45.00000000      48.32867239       1.68293795
      17.00000000      90.00000000      45.00000000      48.32874331       1.68294042
      17.10000000      90.00000000      45.00000000      48.32881425       1.68294289
      17.20000000      90.00000000      45.00000000      48.32888520       1.68294536
      17.30000000      90.00000000      45.00000000      48.32895616       1.68294783
      17.40000000      90.00000000      45.00000000      48.32902713       1.68295030
      17.50000000      90.00000000      45.00000000      48.32909812       1.68295278
      17.60000000      90.00000000      45.00000000      48.32916912       1.68295525
      17.70000000      90.00000000      45.00000000      48.32924013       1.68295772
      17.80000000      90.00000000      45.00000000      48.32931116       1.68296020
      17.90000000      90.00000000      45.00000000      48.32938220       1.68296267
      18.00000000      90.00000000      45.00000000      48.32945325       1.68296514
      18.10000000      90.00000000      45.00000000      48.32952432       1.68296762
      18.20000000      90.00000000      45.00000000      48.32959540       1.68297009
      18.30000000      90.00000000      45.00000000      48.32966649       1.68297257
      18.40000000      90.00000000      45.00000000      48.32973760       1.68297505
      18.50000000      90.00000000      45.00000000      48.32980872       1.68297752
      18.60000000      90.00000000      45.00000000      48.32987985       1.68298000
      18.70000000      90.00000000      45.00000000      48.32995099       1.68298248
      18.80000000      90.00000000      45.00000000      48.33002215       1.68298495
      18.90000000      90.00000000      45.00000000      48.33009332       1.68298743
      19.00000000      90.00000000      45.00000000      48.33016451       1.68298991
      19.10000000      90.00000000      45.00000000      48.33023571       1.68299239
      19.20000000      90.00000000      45.00000000      48.33030692       1.68299487
      19.30000000      90.00000000      45.00000000      48.33037814       1.68299735
      19.40000000      90.00000000      45.00000000      48.33044938       1.68299983
      19.50000000      90.00000000      45.00000000      48.33052063       1.68300231
      19.60000000      90.00000000      45.00000000      48.33059189       1.68300479
      19.70000000      90.00000000      45.00000000      48.33066317       1.68300728
      19.80000000      90.00000000      45.00000000      48.33073446       1.68300976
      19.90000000      90.00000000      45.00000000      48.33080576       1.68301224
      20.00000000      90.00000000      45.00000000      48.33087708       1.68301472
      20.10000000      90.00000000      45.00000000      48.33094841       1.68301721
      20.20000000      90.00000000      45.00000000      48.33101975       1.68301969
      20.30000000      90.00000000      45.00000000      48.33109111       1.68302218
      20.40000000      90.00000000      45.00000000      48.33116248       1.68302466
      20.50000000      90.00000000      45.00000000      48.33123386       1.68302715
      20.60000000      90.00000000      45.00000000      48.33130525       1.68302964
      20.70000000      90.00000000      45.00000000      48.33137666       1.68303212
      20.80000000      90.00000000      45.00000000      48.33144808       1.68303461
      20.90000000      90.00000000      45.00000000      48.33151952       1.68303710
      21.00000000      90.00000000      45.00000000      48.33159097       1.68303958
      21.10000000      90.00000000      45.00000000      48.33166243       1.68304207
      21.20000000      90.00000000      45.00000000      48.33173390       1.68304456
      21.30000000      90.00000000      45.00000000      48.33180539       1.68304705
      21.40000000      90.00000000      45.00000000      48.33187689       1.68304954
      21.50000000      90.00000000      45.00000000      48.33194841       1.68305203
      21.60000000      90.00000000      45.00000000      48.33201993       1.68305452
      21.70000000      90.00000000      45.00000000      48.33209148       1.68305701
      21.80000000      90.00000000      45.00000000      48.33216303       1.68305951
      21.90000000      90.00000000      45.00000000      48.33223460       1.68306200
      22.00000000      90.00000000      45.00000000      48.33230618       1.68306449
      22.10000000      90.00000000      45.00000000      48.33237777       1.68306698
      22.20000000      90.00000000      45.00000000      48.33244938       1.68306948
      22.30000000      90.00000000      45.00000000      48.33252100       1.68307197
      22.40000000      90.00000000      45.00000000      48.33259263       1.68307447
      22.50000000      90.00000000      45.00000000      48.33266428       1.68307696
      22.60000000      90.00000000      45.00000000      48.33273594       1.68307946
      22.70000000      90.00000000      45.00000000      48.33280761       1.68308195
      22.80000000      90.00000000      45.00000000      48.33287930       1.68308445
      22.90000000      90.00000000      45.00000000      48.33295100       1.68308694
      23.00000000      90.00000000      45.00000000      48.33302272       1.68308944
