 # applied field (T), theta (degree), phi (degree), abs for RE 3-4
     0.00000     0.00000     0.00000     0.29336     0.00000     0.00000     0.29336
     0.10000     0.38285     9.91590     0.29336     0.38285    80.08410     0.29336
     0.20000     0.80800     9.64857     0.29338     0.80800    80.35143     0.29338
     0.30000     1.19152     9.74814     0.29341     1.19152    80.25186     0.29341
     0.40000     1.57567     9.80886     0.29345     1.57567    80.19114     0.29345
     0.50000     2.00304     9.75049     0.29350     2.00304    80.24951     0.29350
     0.60000     2.38919     9.81043     0.29357     2.38919    80.18957     0.29357
     0.70000     2.81932     9.79237     0.29365     2.81932    80.20763     0.29365
     0.80000     3.20838     9.85373     0.29373     3.20838    80.14627     0.29373
     0.90000    90.00000     7.96787     0.34091    90.00000    82.03213     0.34091
     1.00000    90.00000     7.97770     0.34091    90.00000    82.02230     0.34091
     1.10000    90.00000     7.98752     0.34090    90.00000    82.01248     0.34090
     1.20000    90.00000     7.99734     0.34090    90.00000    82.00266     0.34090
     1.30000    90.00000     8.00716     0.34089    90.00000    81.99284     0.34089
     1.40000    90.00000     8.01698     0.34088    90.00000    81.98302     0.34088
     1.50000    90.00000     8.02679     0.34088    90.00000    81.97321     0.34088
     1.60000    90.00000     8.03661     0.34087    90.00000    81.96339     0.34087
     1.70000    90.00000     8.04642     0.34087    90.00000    81.95358     0.34087
     1.80000    90.00000     8.05623     0.34086    90.00000    81.94377     0.34086
     1.90000    90.00000     8.06604     0.34086    90.00000    81.93396     0.34086
     2.00000    90.00000     8.07585     0.34085    90.00000    81.92415     0.34085
     2.10000    90.00000     8.08566     0.34084    90.00000    81.91434     0.34084
     2.20000    90.00000     8.09547     0.34084    90.00000    81.90453     0.34084
     2.30000    90.00000     8.10527     0.34083    90.00000    81.89473     0.34083
     2.40000    90.00000     8.11507     0.34083    90.00000    81.88493     0.34083
     2.50000    90.00000     8.12488     0.34082    90.00000    81.87512     0.34082
     2.60000    90.00000     8.13468     0.34082    90.00000    81.86532     0.34082
     2.70000    90.00000     8.14448     0.34081    90.00000    81.85552     0.34081
     2.80000    90.00000     8.15427     0.34081    90.00000    81.84573     0.34081
     2.90000    90.00000     8.16407     0.34080    90.00000    81.83593     0.34080
     3.00000    90.00000     8.17386     0.34079    90.00000    81.82614     0.34079
     3.10000    90.00000     8.18366     0.34079    90.00000    81.81634     0.34079
     3.20000    90.00000     8.19345     0.34078    90.00000    81.80655     0.34078
     3.30000    90.00000     8.20324     0.34078    90.00000    81.79676     0.34078
     3.40000    90.00000     8.21303     0.34077    90.00000    81.78697     0.34077
     3.50000    90.00000     8.22282     0.34077    90.00000    81.77718     0.34077
     3.60000    90.00000     8.23260     0.34076    90.00000    81.76740     0.34076
     3.70000    90.00000     8.24239     0.34076    90.00000    81.75761     0.34076
     3.80000    90.00000     8.25217     0.34075    90.00000    81.74783     0.34075
     3.90000    90.00000     8.26195     0.34075    90.00000    81.73805     0.34075
     4.00000    90.00000     8.27173     0.34074    90.00000    81.72827     0.34074
     4.10000    90.00000     8.28151     0.34074    90.00000    81.71849     0.34074
     4.20000    90.00000     8.29129     0.34073    90.00000    81.70871     0.34073
     4.30000    90.00000     8.30107     0.34073    90.00000    81.69893     0.34073
     4.40000    90.00000     8.31084     0.34072    90.00000    81.68916     0.34072
     4.50000    90.00000     8.32061     0.34072    90.00000    81.67939     0.34072
     4.60000    90.00000     8.33038     0.34071    90.00000    81.66962     0.34071
     4.70000    90.00000     8.34016     0.34070    90.00000    81.65984     0.34070
     4.80000    90.00000     8.34992     0.34070    90.00000    81.65008     0.34070
     4.90000    90.00000     8.35969     0.34069    90.00000    81.64031     0.34069
     5.00000    90.00000     8.36946     0.34069    90.00000    81.63054     0.34069
     5.10000    90.00000     8.37922     0.34068    90.00000    81.62078     0.34068
     5.20000    90.00000     8.38899     0.34068    90.00000    81.61101     0.34068
     5.30000    90.00000     8.39875     0.34067    90.00000    81.60125     0.34067
     5.40000    90.00000     8.40851     0.34067    90.00000    81.59149     0.34067
     5.50000    90.00000     8.41827     0.34066    90.00000    81.58173     0.34066
     5.60000    90.00000     8.42802     0.34066    90.00000    81.57198     0.34066
     5.70000    90.00000     8.43778     0.34065    90.00000    81.56222     0.34065
     5.80000    90.00000     8.44753     0.34065    90.00000    81.55247     0.34065
     5.90000    90.00000     8.45729     0.34064    90.00000    81.54271     0.34064
     6.00000    90.00000     8.46704     0.34064    90.00000    81.53296     0.34064
     6.10000    90.00000     8.47679     0.34063    90.00000    81.52321     0.34063
     6.20000    90.00000     8.48654     0.34063    90.00000    81.51346     0.34063
     6.30000    90.00000     8.49629     0.34062    90.00000    81.50371     0.34062
     6.40000    90.00000     8.50603     0.34062    90.00000    81.49397     0.34062
     6.50000    90.00000     8.51578     0.34061    90.00000    81.48422     0.34061
     6.60000    90.00000     8.52552     0.34061    90.00000    81.47448     0.34061
     6.70000    90.00000     8.53526     0.34060    90.00000    81.46474     0.34060
     6.80000    90.00000     8.54500     0.34060    90.00000    81.45500     0.34060
     6.90000    90.00000     8.55474     0.34059    90.00000    81.44526     0.34059
     7.00000    90.00000     8.56448     0.34059    90.00000    81.43552     0.34059
     7.10000    90.00000     8.57421     0.34059    90.00000    81.42579     0.34059
     7.20000    90.00000     8.58395     0.34058    90.00000    81.41605     0.34058
     7.30000    90.00000     8.59368     0.34058    90.00000    81.40632     0.34058
     7.40000    90.00000     8.60341     0.34057    90.00000    81.39659     0.34057
     7.50000    90.00000     8.61314     0.34057    90.00000    81.38686     0.34057
     7.60000    90.00000     8.62287     0.34056    90.00000    81.37713     0.34056
     7.70000    90.00000     8.63260     0.34056    90.00000    81.36740     0.34056
     7.80000    90.00000     8.64232     0.34055    90.00000    81.35768     0.34055
     7.90000    90.00000     8.65205     0.34055    90.00000    81.34795     0.34055
     8.00000    90.00000     8.66177     0.34054    90.00000    81.33823     0.34054
     8.10000    90.00000     8.67149     0.34054    90.00000    81.32851     0.34054
     8.20000    90.00000     8.68121     0.34053    90.00000    81.31879     0.34053
     8.30000    90.00000     8.69093     0.34053    90.00000    81.30907     0.34053
     8.40000    90.00000     8.70065     0.34052    90.00000    81.29935     0.34052
     8.50000    90.00000     8.71036     0.34052    90.00000    81.28964     0.34052
     8.60000    90.00000     8.72008     0.34051    90.00000    81.27992     0.34051
     8.70000    90.00000     8.72979     0.34051    90.00000    81.27021     0.34051
     8.80000    90.00000     8.73950     0.34051    90.00000    81.26050     0.34051
     8.90000    90.00000     8.74921     0.34050    90.00000    81.25079     0.34050
     9.00000    90.00000     8.75892     0.34050    90.00000    81.24108     0.34050
     9.10000    90.00000     8.76863     0.34049    90.00000    81.23137     0.34049
     9.20000    90.00000     8.77833     0.34049    90.00000    81.22167     0.34049
     9.30000    90.00000     8.78803     0.34048    90.00000    81.21197     0.34048
     9.40000    90.00000     8.79774     0.34048    90.00000    81.20226     0.34048
     9.50000    90.00000     8.80744     0.34047    90.00000    81.19256     0.34047
     9.60000    90.00000     8.81714     0.34047    90.00000    81.18286     0.34047
     9.70000    90.00000     8.82684     0.34047    90.00000    81.17316     0.34047
     9.80000    90.00000     8.83653     0.34046    90.00000    81.16347     0.34046
     9.90000    90.00000     8.84623     0.34046    90.00000    81.15377     0.34046
    10.00000    90.00000     8.85592     0.34045    90.00000    81.14408     0.34045
    10.10000    90.00000     8.86562     0.34045    90.00000    81.13438     0.34045
    10.20000    90.00000     8.87531     0.34044    90.00000    81.12469     0.34044
    10.30000    90.00000     8.88500     0.34044    90.00000    81.11500     0.34044
    10.40000    90.00000     8.89468     0.34044    90.00000    81.10532     0.34044
    10.50000    90.00000     8.90437     0.34043    90.00000    81.09563     0.34043
    10.60000    90.00000     8.91406     0.34043    90.00000    81.08594     0.34043
    10.70000    90.00000     8.92374     0.34042    90.00000    81.07626     0.34042
    10.80000    90.00000     8.93342     0.34042    90.00000    81.06658     0.34042
    10.90000    90.00000     8.94310     0.34041    90.00000    81.05690     0.34041
    11.00000    90.00000     8.95278     0.34041    90.00000    81.04722     0.34041
    11.10000    90.00000     8.96246     0.34041    90.00000    81.03754     0.34041
    11.20000    90.00000     8.97214     0.34040    90.00000    81.02786     0.34040
    11.30000    90.00000     8.98181     0.34040    90.00000    81.01819     0.34040
    11.40000    90.00000     8.99149     0.34039    90.00000    81.00851     0.34039
    11.50000    90.00000     9.00116     0.34039    90.00000    80.99884     0.34039
    11.60000    90.00000     9.01083     0.34038    90.00000    80.98917     0.34038
    11.70000    90.00000     9.02050     0.34038    90.00000    80.97950     0.34038
    11.80000    90.00000     9.03017     0.34038    90.00000    80.96983     0.34038
    11.90000    90.00000     9.03983     0.34037    90.00000    80.96017     0.34037
    12.00000    90.00000     9.04950     0.34037    90.00000    80.95050     0.34037
    12.10000    90.00000     9.05916     0.34036    90.00000    80.94084     0.34036
    12.20000    90.00000     9.06882     0.34036    90.00000    80.93118     0.34036
    12.30000    90.00000     9.07848     0.34036    90.00000    80.92152     0.34036
    12.40000    90.00000     9.08814     0.34035    90.00000    80.91186     0.34035
    12.50000    90.00000     9.09780     0.34035    90.00000    80.90220     0.34035
    12.60000    90.00000     9.10746     0.34034    90.00000    80.89254     0.34034
    12.70000    90.00000     9.11711     0.34034    90.00000    80.88289     0.34034
    12.80000    90.00000     9.12677     0.34034    90.00000    80.87323     0.34034
    12.90000    90.00000     9.13642     0.34033    90.00000    80.86358     0.34033
    13.00000    90.00000     9.14607     0.34033    90.00000    80.85393     0.34033
    13.10000    90.00000     9.15572     0.34032    90.00000    80.84428     0.34032
    13.20000    90.00000     9.16537     0.34032    90.00000    80.83463     0.34032
    13.30000    90.00000     9.17501     0.34032    90.00000    80.82499     0.34032
    13.40000    90.00000     9.18466     0.34031    90.00000    80.81534     0.34031
    13.50000    90.00000     9.19430     0.34031    90.00000    80.80570     0.34031
    13.60000    90.00000     9.20394     0.34030    90.00000    80.79606     0.34030
    13.70000    90.00000     9.21358     0.34030    90.00000    80.78642     0.34030
    13.80000    90.00000     9.22322     0.34030    90.00000    80.77678     0.34030
    13.90000    90.00000     9.23286     0.34029    90.00000    80.76714     0.34029
    14.00000    90.00000     9.24249     0.34029    90.00000    80.75751     0.34029
    14.10000    90.00000     9.25213     0.34029    90.00000    80.74787     0.34029
    14.20000    90.00000     9.26176     0.34028    90.00000    80.73824     0.34028
    14.30000    90.00000     9.27139     0.34028    90.00000    80.72861     0.34028
    14.40000    90.00000     9.28102     0.34027    90.00000    80.71898     0.34027
    14.50000    90.00000     9.29065     0.34027    90.00000    80.70935     0.34027
    14.60000    90.00000     9.30028     0.34027    90.00000    80.69972     0.34027
    14.70000    90.00000     9.30991     0.34026    90.00000    80.69009     0.34026
    14.80000    90.00000     9.31953     0.34026    90.00000    80.68047     0.34026
    14.90000    90.00000     9.32915     0.34026    90.00000    80.67085     0.34026
    15.00000    90.00000     9.33877     0.34025    90.00000    80.66123     0.34025
    15.10000    90.00000     9.34839     0.34025    90.00000    80.65161     0.34025
    15.20000    90.00000     9.35801     0.34025    90.00000    80.64199     0.34025
    15.30000    90.00000     9.36763     0.34024    90.00000    80.63237     0.34024
    15.40000    90.00000     9.37725     0.34024    90.00000    80.62275     0.34024
    15.50000    90.00000     9.38686     0.34023    90.00000    80.61314     0.34023
    15.60000    90.00000     9.39647     0.34023    90.00000    80.60353     0.34023
    15.70000    90.00000     9.40608     0.34023    90.00000    80.59392     0.34023
    15.80000    90.00000     9.41569     0.34022    90.00000    80.58431     0.34022
    15.90000    90.00000     9.42530     0.34022    90.00000    80.57470     0.34022
    16.00000    90.00000     9.43491     0.34022    90.00000    80.56509     0.34022
    16.10000    90.00000     9.44451     0.34021    90.00000    80.55549     0.34021
    16.20000    90.00000     9.45412     0.34021    90.00000    80.54588     0.34021
    16.30000    90.00000     9.46372     0.34021    90.00000    80.53628     0.34021
    16.40000    90.00000     9.47332     0.34020    90.00000    80.52668     0.34020
    16.50000    90.00000     9.48292     0.34020    90.00000    80.51708     0.34020
    16.60000    90.00000     9.49252     0.34020    90.00000    80.50748     0.34020
    16.70000    90.00000     9.50212     0.34019    90.00000    80.49788     0.34019
    16.80000    90.00000     9.51171     0.34019    90.00000    80.48829     0.34019
    16.90000    90.00000     9.52131     0.34019    90.00000    80.47869     0.34019
    17.00000    90.00000     9.53090     0.34018    90.00000    80.46910     0.34018
    17.10000    90.00000     9.54049     0.34018    90.00000    80.45951     0.34018
    17.20000    90.00000     9.55008     0.34018    90.00000    80.44992     0.34018
    17.30000    90.00000     9.55967     0.34017    90.00000    80.44033     0.34017
    17.40000    90.00000     9.56925     0.34017    90.00000    80.43075     0.34017
    17.50000    90.00000     9.57884     0.34017    90.00000    80.42116     0.34017
    17.60000    90.00000     9.58842     0.34016    90.00000    80.41158     0.34016
    17.70000    90.00000     9.59800     0.34016    90.00000    80.40200     0.34016
    17.80000    90.00000     9.60758     0.34016    90.00000    80.39242     0.34016
    17.90000    90.00000     9.61716     0.34015    90.00000    80.38284     0.34015
    18.00000    90.00000     9.62674     0.34015    90.00000    80.37326     0.34015
    18.10000    90.00000     9.63632     0.34015    90.00000    80.36368     0.34015
    18.20000    90.00000     9.64589     0.34014    90.00000    80.35411     0.34014
    18.30000    90.00000     9.65547     0.34014    90.00000    80.34453     0.34014
    18.40000    90.00000     9.66504     0.34014    90.00000    80.33496     0.34014
    18.50000    90.00000     9.67461     0.34014    90.00000    80.32539     0.34014
    18.60000    90.00000     9.68418     0.34013    90.00000    80.31582     0.34013
    18.70000    90.00000     9.69375     0.34013    90.00000    80.30625     0.34013
    18.80000    90.00000     9.70331     0.34013    90.00000    80.29669     0.34013
    18.90000    90.00000     9.71288     0.34012    90.00000    80.28712     0.34012
    19.00000    90.00000     9.72244     0.34012    90.00000    80.27756     0.34012
    19.10000    90.00000     9.73200     0.34012    90.00000    80.26800     0.34012
    19.20000    90.00000     9.74156     0.34011    90.00000    80.25844     0.34011
    19.30000    90.00000     9.75112     0.34011    90.00000    80.24888     0.34011
    19.40000    90.00000     9.76068     0.34011    90.00000    80.23932     0.34011
    19.50000    90.00000     9.77023     0.34010    90.00000    80.22977     0.34010
    19.60000    90.00000     9.77979     0.34010    90.00000    80.22021     0.34010
    19.70000    90.00000     9.78934     0.34010    90.00000    80.21066     0.34010
    19.80000    90.00000     9.79889     0.34010    90.00000    80.20111     0.34010
    19.90000    90.00000     9.80844     0.34009    90.00000    80.19156     0.34009
    20.00000    90.00000     9.81799     0.34009    90.00000    80.18201     0.34009
    20.10000    90.00000     9.82754     0.34009    90.00000    80.17246     0.34009
    20.20000    90.00000     9.83708     0.34008    90.00000    80.16292     0.34008
    20.30000    90.00000     9.84663     0.34008    90.00000    80.15337     0.34008
    20.40000    90.00000     9.85617     0.34008    90.00000    80.14383     0.34008
    20.50000    90.00000     9.86571     0.34008    90.00000    80.13429     0.34008
    20.60000    90.00000     9.87525     0.34007    90.00000    80.12475     0.34007
    20.70000    90.00000     9.88479     0.34007    90.00000    80.11521     0.34007
    20.80000    90.00000     9.89433     0.34007    90.00000    80.10567     0.34007
    20.90000    90.00000     9.90386     0.34006    90.00000    80.09614     0.34006
    21.00000    90.00000     9.91340     0.34006    90.00000    80.08660     0.34006
    21.10000    90.00000     9.92293     0.34006    90.00000    80.07707     0.34006
    21.20000    90.00000     9.93246     0.34006    90.00000    80.06754     0.34006
    21.30000    90.00000     9.94199     0.34005    90.00000    80.05801     0.34005
    21.40000    90.00000     9.95152     0.34005    90.00000    80.04848     0.34005
    21.50000    90.00000     9.96105     0.34005    90.00000    80.03895     0.34005
    21.60000    90.00000     9.97057     0.34005    90.00000    80.02943     0.34005
    21.70000    90.00000     9.98009     0.34004    90.00000    80.01991     0.34004
    21.80000    90.00000     9.98962     0.34004    90.00000    80.01038     0.34004
    21.90000    90.00000     9.99914     0.34004    90.00000    80.00086     0.34004
    22.00000    90.00000    10.00866     0.34004    90.00000    79.99134     0.34004
    22.10000    90.00000    10.01818     0.34003    90.00000    79.98182     0.34003
    22.20000    90.00000    10.02769     0.34003    90.00000    79.97231     0.34003
    22.30000    90.00000    10.03721     0.34003    90.00000    79.96279     0.34003
    22.40000    90.00000    10.04672     0.34003    90.00000    79.95328     0.34003
    22.50000    90.00000    10.05623     0.34002    90.00000    79.94377     0.34002
    22.60000    90.00000    10.06574     0.34002    90.00000    79.93426     0.34002
    22.70000    90.00000    10.07525     0.34002    90.00000    79.92475     0.34002
    22.80000    90.00000    10.08476     0.34002    90.00000    79.91524     0.34002
    22.90000    90.00000    10.09427     0.34001    90.00000    79.90573     0.34001
    23.00000    90.00000    10.10377     0.34001    90.00000    79.89623     0.34001
    23.10000    90.00000    10.11327     0.34001    90.00000    79.88673     0.34001
    23.20000    90.00000    10.12278     0.34001    90.00000    79.87722     0.34001
    23.30000    90.00000    10.13228     0.34000    90.00000    79.86772     0.34000
