 # applied field (T), theta (degree), phi (degree), abs for RE 1-2
     0.00000     2.27803   315.00000     4.70039     2.27803   225.00000     4.70039
     0.10000     2.52336   320.01930     4.70042     2.05418   231.17253     4.70036
     0.20000     2.74679   323.59046     4.70044     1.88498   237.58236     4.70033
     0.30000     3.01817   327.06626     4.70046     1.72364   246.50049     4.70028
     0.40000     3.29875   329.95929     4.70047     1.61173   256.95345     4.70024
     0.50000     3.58636   332.39331     4.70048     1.56007   268.52563     4.70018
     0.60000     3.83777   334.18954     4.70048     1.56863   278.72845     4.70013
     0.70000     4.13468   336.00385     4.70048     1.63931   290.05925     4.70007
     0.80000     4.43520   337.57381     4.70048     1.76778   300.10972     4.70000
     0.90000     4.73868   338.94378     4.70047     1.94279   308.58695     4.69993
     1.00000     5.00125   339.98724     4.70045     2.12169   314.64807     4.69986
     1.10000     5.30899   341.07206     4.70043     2.35510   320.47672     4.69978
     1.20000     5.61855   342.03800     4.70041     2.60873   325.22088     4.69969
     1.30000     5.92968   342.90316     4.70038     2.87741   329.10806     4.69960
     1.40000     6.24220   343.68223     4.70034     3.15746   332.32391     4.69950
     1.50000     6.51156   344.29176     4.70031     3.40501   334.66053     4.69941
     1.60000     6.82629   344.94116     4.70027     3.69984   336.98642     4.69930
     1.70000     7.14205   345.53361     4.70022     4.00037   338.96965     4.69919
     1.80000     7.45878   346.07619     4.70017     4.30557   340.67708     4.69907
     1.90000     7.77641   346.57488     4.70011     4.61466   342.16020     4.69894
     2.00000     8.09490   347.03477     4.70005     4.92707   343.45898     4.69881
     2.10000     8.41420   347.46016     4.69998     5.24234   344.60482     4.69868
     2.20000     8.73429   347.85478     4.69991     5.56014   345.62259     4.69854
     2.30000     9.05514   348.22183     4.69983     5.88020   346.53218     4.69839
     2.40000     9.37675   348.56409     4.69975     6.20233   347.34970     4.69824
     2.50000     9.69909   348.88398     4.69966     6.52635   348.08826     4.69808
     2.60000    10.02216   349.18361     4.69957     6.85215   348.75866     4.69792
     2.70000    10.34597   349.46485     4.69948     7.17962   349.36984     4.69775
     2.80000    10.67050   349.72934     4.69938     7.50868   349.92929     4.69758
     2.90000    10.99576   349.97852     4.69928     7.83928   350.44327     4.69740
     3.00000    11.36787   350.24583     4.69915     8.21841   350.98110     4.69719
     3.10000    11.69471   350.46641     4.69904     8.55216   351.41465     4.69700
     3.20000    12.02229   350.67529     4.69892     8.88733   351.81700     4.69681
     3.30000    12.39709   350.90052     4.69879     9.27158   352.24222     4.69658
     3.40000    12.72630   351.08729     4.69866     9.60975   352.58820     4.69637
     3.50000    13.05628   351.26492     4.69853     9.94932   352.91188     4.69616
     3.60000    13.43386   351.45729     4.69838    10.33856   353.25675     4.69591
     3.70000    13.76555   351.61749     4.69824    10.68110   353.53949     4.69569
     3.80000    14.14510   351.79143     4.69807    11.07375   353.84216     4.69542
     3.90000    14.52573   351.95662     4.69791    11.46824   354.12550     4.69516
     4.00000    14.86013   352.09470     4.69775    11.81540   354.35934     4.69492
     4.10000    15.24283   352.24516     4.69758    12.21338   354.61122     4.69464
     4.20000    15.62667   352.38857     4.69740    12.61324   354.84849     4.69435
     4.30000    16.01166   352.52542     4.69721    13.01501   355.07244     4.69406
     4.40000    16.39782   352.65615     4.69702    13.41872   355.28420     4.69376
     4.50000    16.78517   352.78116     4.69682    13.82439   355.48480     4.69345
     4.60000    17.22194   352.91527     4.69659    14.28267   355.69801     4.69310
     4.70000    17.61189   353.02933     4.69639    14.69259   355.87776     4.69278
     4.80000    18.00310   353.13875     4.69618    15.10457   356.04888     4.69245
     4.90000    18.44427   353.25647     4.69594    15.57004   356.23166     4.69208
     5.00000    18.88707   353.36904     4.69569    16.03818   356.40517     4.69170
     5.10000    19.28247   353.46518     4.69547    16.45701   356.55238     4.69135
     5.20000    19.72843   353.56890     4.69522    16.93030   356.71033     4.69096
     5.30000    20.17608   353.66837     4.69496    17.40637   356.86096     4.69056
     5.40000    20.67511   353.77410     4.69467    17.93822   357.02024     4.69011
     5.50000    21.12643   353.86542     4.69440    18.42030   357.15712     4.68969
     5.60000    21.62958   353.96268     4.69410    18.95891   357.30230     4.68923
     5.70000    22.13493   354.05590     4.69379    19.50115   357.44088     4.68875
     5.80000    22.64252   354.14532     4.69348    20.04708   357.57335     4.68827
     5.90000    23.15236   354.23119     4.69317    20.59674   357.70016     4.68779
     6.00000    23.71546   354.32171     4.69282    21.20531   357.83350     4.68725
     6.10000    24.28132   354.40846     4.69247    21.81848   357.96098     4.68670
     6.20000    24.84998   354.49168     4.69211    22.43632   358.08302     4.68615
     6.30000    25.47322   354.57863     4.69172    23.11530   358.21035     4.68554
     6.40000    26.09981   354.66190     4.69133    23.79991   358.33215     4.68493
     6.50000    26.72978   354.74176     4.69094    24.49019   358.44885     4.68431
     6.60000    27.46841   354.83076     4.69048    25.30202   358.57891     4.68360
     6.70000    28.21163   354.91573     4.69001    26.12160   358.70306     4.68288
     6.80000    28.95944   354.99695     4.68955    26.94895   358.82178     4.68216
     6.90000    29.81916   355.08544     4.68903    27.90338   358.95125     4.68134
     7.00000    30.73885   355.17484     4.68848    28.92819   359.08225     4.68049
     7.10000    88.13232   357.61759     4.67920    91.86768     2.38241     4.67920
     7.20000    88.13256   357.61789     4.67918    91.86744     2.38211     4.67918
     7.30000    88.13281   357.61818     4.67916    91.86719     2.38182     4.67916
     7.40000    88.13305   357.61848     4.67914    91.86695     2.38152     4.67914
     7.50000    88.13330   357.61878     4.67912    91.86670     2.38122     4.67912
     7.60000    88.13355   357.61907     4.67910    91.86645     2.38093     4.67910
     7.70000    88.13379   357.61937     4.67907    91.86621     2.38063     4.67907
     7.80000    88.13404   357.61966     4.67905    91.86596     2.38034     4.67905
     7.90000    88.13428   357.61996     4.67903    91.86572     2.38004     4.67903
     8.00000    88.13453   357.62025     4.67901    91.86547     2.37975     4.67901
     8.10000    88.13477   357.62055     4.67899    91.86523     2.37945     4.67899
     8.20000    88.13502   357.62085     4.67897    91.86498     2.37915     4.67897
     8.30000    88.13527   357.62114     4.67894    91.86473     2.37886     4.67894
     8.40000    88.13551   357.62144     4.67892    91.86449     2.37856     4.67892
     8.50000    88.13576   357.62173     4.67890    91.86424     2.37827     4.67890
     8.60000    88.13600   357.62203     4.67888    91.86400     2.37797     4.67888
     8.70000    88.13625   357.62232     4.67886    91.86375     2.37768     4.67886
     8.80000    88.13649   357.62262     4.67884    91.86351     2.37738     4.67884
     8.90000    88.13673   357.62291     4.67881    91.86327     2.37709     4.67881
     9.00000    88.13698   357.62320     4.67879    91.86302     2.37680     4.67879
     9.10000    88.13722   357.62350     4.67877    91.86278     2.37650     4.67877
     9.20000    88.13747   357.62379     4.67875    91.86253     2.37621     4.67875
     9.30000    88.13771   357.62409     4.67873    91.86229     2.37591     4.67873
     9.40000    88.13796   357.62438     4.67871    91.86204     2.37562     4.67871
     9.50000    88.13820   357.62468     4.67869    91.86180     2.37532     4.67869
     9.60000    88.13845   357.62497     4.67866    91.86155     2.37503     4.67866
     9.70000    88.13869   357.62526     4.67864    91.86131     2.37474     4.67864
     9.80000    88.13893   357.62556     4.67862    91.86107     2.37444     4.67862
     9.90000    88.13918   357.62585     4.67860    91.86082     2.37415     4.67860
    10.00000    88.13942   357.62614     4.67858    91.86058     2.37386     4.67858
    10.10000    88.13966   357.62644     4.67856    91.86034     2.37356     4.67856
    10.20000    88.13991   357.62673     4.67853    91.86009     2.37327     4.67853
    10.30000    88.14015   357.62702     4.67851    91.85985     2.37298     4.67851
    10.40000    88.14039   357.62732     4.67849    91.85961     2.37268     4.67849
    10.50000    88.14064   357.62761     4.67847    91.85936     2.37239     4.67847
    10.60000    88.14088   357.62790     4.67845    91.85912     2.37210     4.67845
    10.70000    88.14112   357.62820     4.67843    91.85888     2.37180     4.67843
    10.80000    88.14137   357.62849     4.67840    91.85863     2.37151     4.67840
    10.90000    88.14161   357.62878     4.67838    91.85839     2.37122     4.67838
    11.00000    88.14185   357.62907     4.67836    91.85815     2.37093     4.67836
    11.10000    88.14210   357.62937     4.67834    91.85790     2.37063     4.67834
    11.20000    88.14234   357.62966     4.67832    91.85766     2.37034     4.67832
    11.30000    88.14258   357.62995     4.67830    91.85742     2.37005     4.67830
    11.40000    88.14282   357.63024     4.67827    91.85718     2.36976     4.67827
    11.50000    88.14307   357.63054     4.67825    91.85693     2.36946     4.67825
    11.60000    88.14331   357.63083     4.67823    91.85669     2.36917     4.67823
    11.70000    88.14355   357.63112     4.67821    91.85645     2.36888     4.67821
    11.80000    88.14379   357.63141     4.67819    91.85621     2.36859     4.67819
    11.90000    88.14403   357.63170     4.67817    91.85597     2.36830     4.67817
    12.00000    88.14428   357.63199     4.67814    91.85572     2.36801     4.67814
    12.10000    88.14452   357.63229     4.67812    91.85548     2.36771     4.67812
    12.20000    88.14476   357.63258     4.67810    91.85524     2.36742     4.67810
    12.30000    88.14500   357.63287     4.67808    91.85500     2.36713     4.67808
    12.40000    88.14524   357.63316     4.67806    91.85476     2.36684     4.67806
    12.50000    88.14549   357.63345     4.67804    91.85451     2.36655     4.67804
    12.60000    88.14573   357.63374     4.67801    91.85427     2.36626     4.67801
    12.70000    88.14597   357.63403     4.67799    91.85403     2.36597     4.67799
    12.80000    88.14621   357.63432     4.67797    91.85379     2.36568     4.67797
    12.90000    88.14645   357.63461     4.67795    91.85355     2.36539     4.67795
    13.00000    88.14669   357.63490     4.67793    91.85331     2.36510     4.67793
    13.10000    88.14693   357.63519     4.67791    91.85307     2.36481     4.67791
    13.20000    88.14717   357.63548     4.67788    91.85283     2.36452     4.67788
    13.30000    88.14741   357.63578     4.67786    91.85259     2.36422     4.67786
    13.40000    88.14766   357.63607     4.67784    91.85234     2.36393     4.67784
    13.50000    88.14790   357.63636     4.67782    91.85210     2.36364     4.67782
    13.60000    88.14814   357.63665     4.67780    91.85186     2.36335     4.67780
    13.70000    88.14838   357.63694     4.67777    91.85162     2.36306     4.67777
    13.80000    88.14862   357.63722     4.67775    91.85138     2.36278     4.67775
    13.90000    88.14886   357.63751     4.67773    91.85114     2.36249     4.67773
    14.00000    88.14910   357.63780     4.67771    91.85090     2.36220     4.67771
    14.10000    88.14934   357.63809     4.67769    91.85066     2.36191     4.67769
    14.20000    88.14958   357.63838     4.67767    91.85042     2.36162     4.67767
    14.30000    88.14982   357.63867     4.67764    91.85018     2.36133     4.67764
    14.40000    88.15006   357.63896     4.67762    91.84994     2.36104     4.67762
    14.50000    88.15030   357.63925     4.67760    91.84970     2.36075     4.67760
    14.60000    88.15054   357.63954     4.67758    91.84946     2.36046     4.67758
    14.70000    88.15078   357.63983     4.67756    91.84922     2.36017     4.67756
    14.80000    88.15102   357.64012     4.67754    91.84898     2.35988     4.67754
    14.90000    88.15126   357.64041     4.67751    91.84874     2.35959     4.67751
    15.00000    88.15150   357.64069     4.67749    91.84850     2.35931     4.67749
    15.10000    88.15173   357.64098     4.67747    91.84827     2.35902     4.67747
    15.20000    88.15197   357.64127     4.67745    91.84803     2.35873     4.67745
    15.30000    88.15221   357.64156     4.67743    91.84779     2.35844     4.67743
    15.40000    88.15245   357.64185     4.67741    91.84755     2.35815     4.67741
    15.50000    88.15269   357.64214     4.67738    91.84731     2.35786     4.67738
    15.60000    88.15293   357.64242     4.67736    91.84707     2.35758     4.67736
    15.70000    88.15317   357.64271     4.67734    91.84683     2.35729     4.67734
    15.80000    88.15341   357.64300     4.67732    91.84659     2.35700     4.67732
    15.90000    88.15365   357.64329     4.67730    91.84635     2.35671     4.67730
    16.00000    88.15388   357.64357     4.67727    91.84612     2.35643     4.67727
    16.10000    88.15412   357.64386     4.67725    91.84588     2.35614     4.67725
    16.20000    88.15436   357.64415     4.67723    91.84564     2.35585     4.67723
    16.30000    88.15460   357.64444     4.67721    91.84540     2.35556     4.67721
    16.40000    88.15484   357.64472     4.67719    91.84516     2.35528     4.67719
    16.50000    88.15507   357.64501     4.67717    91.84493     2.35499     4.67717
    16.60000    88.15531   357.64530     4.67714    91.84469     2.35470     4.67714
    16.70000    88.15555   357.64558     4.67712    91.84445     2.35442     4.67712
    16.80000    88.15579   357.64587     4.67710    91.84421     2.35413     4.67710
    16.90000    88.15603   357.64616     4.67708    91.84397     2.35384     4.67708
    17.00000    88.15626   357.64644     4.67706    91.84374     2.35356     4.67706
    17.10000    88.15650   357.64673     4.67703    91.84350     2.35327     4.67703
    17.20000    88.15674   357.64702     4.67701    91.84326     2.35298     4.67701
    17.30000    88.15698   357.64730     4.67699    91.84302     2.35270     4.67699
    17.40000    88.15721   357.64759     4.67697    91.84279     2.35241     4.67697
    17.50000    88.15745   357.64788     4.67695    91.84255     2.35212     4.67695
    17.60000    88.15769   357.64816     4.67693    91.84231     2.35184     4.67693
    17.70000    88.15792   357.64845     4.67690    91.84208     2.35155     4.67690
    17.80000    88.15816   357.64873     4.67688    91.84184     2.35127     4.67688
    17.90000    88.15840   357.64902     4.67686    91.84160     2.35098     4.67686
    18.00000    88.15863   357.64930     4.67684    91.84137     2.35070     4.67684
    18.10000    88.15887   357.64959     4.67682    91.84113     2.35041     4.67682
    18.20000    88.15911   357.64988     4.67679    91.84089     2.35012     4.67679
    18.30000    88.15934   357.65016     4.67677    91.84066     2.34984     4.67677
    18.40000    88.15958   357.65045     4.67675    91.84042     2.34955     4.67675
    18.50000    88.15982   357.65073     4.67673    91.84018     2.34927     4.67673
    18.60000    88.16005   357.65102     4.67671    91.83995     2.34898     4.67671
    18.70000    88.16029   357.65130     4.67668    91.83971     2.34870     4.67668
    18.80000    88.16053   357.65159     4.67666    91.83947     2.34841     4.67666
    18.90000    88.16076   357.65187     4.67664    91.83924     2.34813     4.67664
    19.00000    88.16100   357.65216     4.67662    91.83900     2.34784     4.67662
    19.10000    88.16123   357.65244     4.67660    91.83877     2.34756     4.67660
    19.20000    88.16147   357.65272     4.67658    91.83853     2.34728     4.67658
    19.30000    88.16170   357.65301     4.67655    91.83830     2.34699     4.67655
    19.40000    88.16194   357.65329     4.67653    91.83806     2.34671     4.67653
    19.50000    88.16218   357.65358     4.67651    91.83782     2.34642     4.67651
    19.60000    88.16241   357.65386     4.67649    91.83759     2.34614     4.67649
    19.70000    88.16265   357.65415     4.67647    91.83735     2.34585     4.67647
    19.80000    88.16288   357.65443     4.67644    91.83712     2.34557     4.67644
    19.90000    88.16312   357.65471     4.67642    91.83688     2.34529     4.67642
    20.00000    88.16335   357.65500     4.67640    91.83665     2.34500     4.67640
    20.10000    88.16359   357.65528     4.67638    91.83641     2.34472     4.67638
    20.20000    88.16382   357.65556     4.67636    91.83618     2.34444     4.67636
    20.30000    88.16406   357.65585     4.67633    91.83594     2.34415     4.67633
    20.40000    88.16429   357.65613     4.67631    91.83571     2.34387     4.67631
    20.50000    88.16453   357.65641     4.67629    91.83547     2.34359     4.67629
    20.60000    88.16476   357.65670     4.67627    91.83524     2.34330     4.67627
    20.70000    88.16499   357.65698     4.67625    91.83501     2.34302     4.67625
    20.80000    88.16523   357.65726     4.67622    91.83477     2.34274     4.67622
    20.90000    88.16546   357.65755     4.67620    91.83454     2.34245     4.67620
    21.00000    88.16570   357.65783     4.67618    91.83430     2.34217     4.67618
    21.10000    88.16593   357.65811     4.67616    91.83407     2.34189     4.67616
    21.20000    88.16617   357.65839     4.67614    91.83383     2.34161     4.67614
    21.30000    88.16640   357.65868     4.67612    91.83360     2.34132     4.67612
    21.40000    88.16663   357.65896     4.67609    91.83337     2.34104     4.67609
    21.50000    88.16687   357.65924     4.67607    91.83313     2.34076     4.67607
    21.60000    88.16710   357.65952     4.67605    91.83290     2.34048     4.67605
    21.70000    88.16733   357.65980     4.67603    91.83267     2.34020     4.67603
    21.80000    88.16757   357.66009     4.67601    91.83243     2.33991     4.67601
    21.90000    88.16780   357.66037     4.67598    91.83220     2.33963     4.67598
    22.00000    88.16804   357.66065     4.67596    91.83196     2.33935     4.67596
    22.10000    88.16827   357.66093     4.67594    91.83173     2.33907     4.67594
    22.20000    88.16850   357.66121     4.67592    91.83150     2.33879     4.67592
    22.30000    88.16873   357.66149     4.67590    91.83127     2.33851     4.67590
    22.40000    88.16897   357.66178     4.67587    91.83103     2.33822     4.67587
    22.50000    88.16920   357.66206     4.67585    91.83080     2.33794     4.67585
    22.60000    88.16943   357.66234     4.67583    91.83057     2.33766     4.67583
    22.70000    88.16967   357.66262     4.67581    91.83033     2.33738     4.67581
    22.80000    88.16990   357.66290     4.67579    91.83010     2.33710     4.67579
    22.90000    88.17013   357.66318     4.67576    91.82987     2.33682     4.67576
    23.00000    88.17036   357.66346     4.67574    91.82964     2.33654     4.67574
    23.10000    88.17060   357.66374     4.67572    91.82940     2.33626     4.67572
    23.20000    88.17083   357.66402     4.67570    91.82917     2.33598     4.67570
    23.30000    88.17106   357.66430     4.67568    91.82894     2.33570     4.67568
