 # applied field (T), theta (degree), phi (degree), abs [muB/unitcell], abs [T]
       0.00000000       0.00000000       0.00000000      50.84411544       1.77053263
       0.10000000       0.39865504     360.00000000      50.84411454       1.77053260
       0.20000000       0.85417265     360.00000000      50.84411096       1.77053248
       0.30000000       1.25283137     360.00000000      50.84410604       1.77053230
       0.40000000       1.65149351     360.00000000      50.84409933       1.77053207
       0.50000000       2.10702345     360.00000000      50.84408868       1.77053170
       0.60000000       2.50569661     360.00000000      50.84407802       1.77053133
       0.70000000       2.96124201     360.00000000      50.84406258       1.77053079
       0.80000000       3.35993116     360.00000000      50.84404807       1.77053029
       0.90000000       3.75862948     360.00000000      50.84403187       1.77052972
       1.00000000       4.21420784     360.00000000      50.84400973       1.77052895
       1.10000000       4.61292942     360.00000000      50.84398987       1.77052826
       1.20000000       5.06853725     360.00000000      50.84396332       1.77052733
       1.30000000       5.46728702     360.00000000      50.84393998       1.77052652
       1.40000000       5.92292991     360.00000000      50.84390923       1.77052545
       1.50000000       6.32171275     360.00000000      50.84388261       1.77052452
       1.60000000       6.77739626     360.00000000      50.84384792       1.77052332
       1.70000000       7.17621700     360.00000000      50.84381824       1.77052228
       1.80000000       7.63194664     360.00000000      50.84377990       1.77052095
       1.90000000       8.08770314     360.00000000      50.84373965       1.77051955
       2.00000000       8.48659126     360.00000000      50.84370575       1.77051836
       2.10000000       8.94240218     360.00000000      50.84366235       1.77051685
       2.20000000       9.39824432     360.00000000      50.84361733       1.77051529
       2.30000000       9.79721082     360.00000000      50.84357991       1.77051398
       2.40000000      10.25311549     360.00000000      50.84353230       1.77051232
       2.50000000      10.70905566     360.00000000      50.84348340       1.77051062
       2.60000000      11.16503278     360.00000000      50.84343333       1.77050888
       2.70000000      11.62104828     360.00000000      50.84338221       1.77050710
       2.80000000      12.07710358     360.00000000      50.84333016       1.77050529
       2.90000000      12.53320008     360.00000000      50.84327731       1.77050345
       3.00000000      12.98933915     360.00000000      50.84322381       1.77050158
       3.10000000      13.50247089     360.00000000      50.84315865       1.77049931
       3.20000000      13.95870499     360.00000000      50.84310405       1.77049741
       3.30000000      14.41498584     360.00000000      50.84304922       1.77049550
       3.40000000      14.92828220     360.00000000      50.84298268       1.77049319
       3.50000000      15.38466668     360.00000000      50.84292769       1.77049127
       3.60000000      15.89808298     360.00000000      50.84286107       1.77048895
       3.70000000      16.41156532     360.00000000      50.84279464       1.77048664
       3.80000000      16.86811900     360.00000000      50.84274064       1.77048476
       3.90000000      17.38173048     360.00000000      50.84267528       1.77048248
       4.00000000      17.95242497     360.00000000      50.84259866       1.77047981
       4.10000000      18.46618762     360.00000000      50.84253516       1.77047760
       4.20000000      18.98002413     360.00000000      50.84247292       1.77047543
       4.30000000      19.49393590     360.00000000      50.84241216       1.77047332
       4.40000000      20.06497140     360.00000000      50.84234120       1.77047085
       4.50000000      20.63610350     360.00000000      50.84227236       1.77046845
       4.60000000      21.20733383     360.00000000      50.84220595       1.77046614
       4.70000000      21.77866396     360.00000000      50.84214224       1.77046392
       4.80000000      22.35009533     360.00000000      50.84208153       1.77046180
       4.90000000      22.97872838     360.00000000      50.84201305       1.77045942
       5.00000000      23.60748751     360.00000000      50.84194866       1.77045718
       5.10000000      24.23637419     360.00000000      50.84188871       1.77045509
       5.20000000      24.92252534     360.00000000      50.84182348       1.77045282
       5.30000000      25.55168283     360.00000000      50.84177380       1.77045109
       5.40000000      26.29529417     360.00000000      50.84171116       1.77044891
       5.50000000      26.98191394     360.00000000      50.84166487       1.77044730
       5.60000000      27.72588135     360.00000000      50.84161750       1.77044565
       5.70000000      28.52724033     360.00000000      50.84157117       1.77044403
       5.80000000      29.38603783     360.00000000      50.84152829       1.77044254
       5.90000000      30.24508339     360.00000000      50.84149757       1.77044147
       6.00000000      31.16163239     360.00000000      50.84147431       1.77044066
       6.10000000      32.13573541     360.00000000      50.84146155       1.77044022
       6.20000000      33.22474015     360.00000000      50.84145933       1.77044014
       6.30000000      34.37144375     360.00000000      50.84147661       1.77044074
       6.40000000      90.00000000     360.00000000      50.84864063       1.77069021
       6.50000000      90.00000000     360.00000000      50.84871942       1.77069295
       6.60000000      90.00000000     360.00000000      50.84879821       1.77069570
       6.70000000      90.00000000     360.00000000      50.84887698       1.77069844
       6.80000000      90.00000000     360.00000000      50.84895575       1.77070118
       6.90000000      90.00000000     360.00000000      50.84903450       1.77070393
       7.00000000      90.00000000     360.00000000      50.84911324       1.77070667
       7.10000000      90.00000000     360.00000000      50.84919196       1.77070941
       7.20000000      90.00000000     360.00000000      50.84927068       1.77071215
       7.30000000      90.00000000     360.00000000      50.84934939       1.77071489
       7.40000000      90.00000000     360.00000000      50.84942808       1.77071763
       7.50000000      90.00000000     360.00000000      50.84950677       1.77072037
       7.60000000      90.00000000     360.00000000      50.84958544       1.77072311
       7.70000000      90.00000000     360.00000000      50.84966410       1.77072585
       7.80000000      90.00000000     360.00000000      50.84974275       1.77072859
       7.90000000      90.00000000     360.00000000      50.84982139       1.77073133
       8.00000000      90.00000000     360.00000000      50.84990002       1.77073407
       8.10000000      90.00000000     360.00000000      50.84997863       1.77073680
       8.20000000      90.00000000     360.00000000      50.85005724       1.77073954
       8.30000000      90.00000000     360.00000000      50.85013583       1.77074228
       8.40000000      90.00000000     360.00000000      50.85021441       1.77074501
       8.50000000      90.00000000     360.00000000      50.85029298       1.77074775
       8.60000000      90.00000000     360.00000000      50.85037155       1.77075049
       8.70000000      90.00000000     360.00000000      50.85045010       1.77075322
       8.80000000      90.00000000     360.00000000      50.85052863       1.77075596
       8.90000000      90.00000000     360.00000000      50.85060716       1.77075869
       9.00000000      90.00000000     360.00000000      50.85068568       1.77076143
       9.10000000      90.00000000     360.00000000      50.85076418       1.77076416
       9.20000000      90.00000000     360.00000000      50.85084268       1.77076689
       9.30000000      90.00000000     360.00000000      50.85092116       1.77076963
       9.40000000      90.00000000     360.00000000      50.85099963       1.77077236
       9.50000000      90.00000000     360.00000000      50.85107809       1.77077509
       9.60000000      90.00000000     360.00000000      50.85115654       1.77077782
       9.70000000      90.00000000     360.00000000      50.85123498       1.77078055
       9.80000000      90.00000000     360.00000000      50.85131341       1.77078328
       9.90000000      90.00000000     360.00000000      50.85139183       1.77078602
      10.00000000      90.00000000     360.00000000      50.85147023       1.77078875
      10.10000000      90.00000000     360.00000000      50.85154863       1.77079148
      10.20000000      90.00000000     360.00000000      50.85162701       1.77079420
      10.30000000      90.00000000     360.00000000      50.85170538       1.77079693
      10.40000000      90.00000000     360.00000000      50.85178375       1.77079966
      10.50000000      90.00000000     360.00000000      50.85186210       1.77080239
      10.60000000      90.00000000     360.00000000      50.85194044       1.77080512
      10.70000000      90.00000000     360.00000000      50.85201877       1.77080785
      10.80000000      90.00000000     360.00000000      50.85209709       1.77081057
      10.90000000      90.00000000     360.00000000      50.85217539       1.77081330
      11.00000000      90.00000000     360.00000000      50.85225369       1.77081603
      11.10000000      90.00000000     360.00000000      50.85233198       1.77081875
      11.20000000      90.00000000     360.00000000      50.85241025       1.77082148
      11.30000000      90.00000000     360.00000000      50.85248852       1.77082420
      11.40000000      90.00000000     360.00000000      50.85256677       1.77082693
      11.50000000      90.00000000     360.00000000      50.85264501       1.77082965
      11.60000000      90.00000000     360.00000000      50.85272324       1.77083238
      11.70000000      90.00000000     360.00000000      50.85280147       1.77083510
      11.80000000      90.00000000     360.00000000      50.85287968       1.77083783
      11.90000000      90.00000000     360.00000000      50.85295787       1.77084055
      12.00000000      90.00000000     360.00000000      50.85303606       1.77084327
      12.10000000      90.00000000     360.00000000      50.85311424       1.77084599
      12.20000000      90.00000000     360.00000000      50.85319241       1.77084872
      12.30000000      90.00000000     360.00000000      50.85327056       1.77085144
      12.40000000      90.00000000     360.00000000      50.85334871       1.77085416
      12.50000000      90.00000000     360.00000000      50.85342685       1.77085688
      12.60000000      90.00000000     360.00000000      50.85350497       1.77085960
      12.70000000      90.00000000     360.00000000      50.85358308       1.77086232
      12.80000000      90.00000000     360.00000000      50.85366119       1.77086504
      12.90000000      90.00000000     360.00000000      50.85373928       1.77086776
      13.00000000      90.00000000     360.00000000      50.85381736       1.77087048
      13.10000000      90.00000000     360.00000000      50.85389543       1.77087320
      13.20000000      90.00000000     360.00000000      50.85397349       1.77087592
      13.30000000      90.00000000     360.00000000      50.85405154       1.77087863
      13.40000000      90.00000000     360.00000000      50.85412958       1.77088135
      13.50000000      90.00000000     360.00000000      50.85420761       1.77088407
      13.60000000      90.00000000     360.00000000      50.85428562       1.77088679
      13.70000000      90.00000000     360.00000000      50.85436363       1.77088950
      13.80000000      90.00000000     360.00000000      50.85444163       1.77089222
      13.90000000      90.00000000     360.00000000      50.85451961       1.77089493
      14.00000000      90.00000000     360.00000000      50.85459759       1.77089765
      14.10000000      90.00000000     360.00000000      50.85467555       1.77090036
      14.20000000      90.00000000     360.00000000      50.85475351       1.77090308
      14.30000000      90.00000000     360.00000000      50.85483145       1.77090579
      14.40000000      90.00000000     360.00000000      50.85490939       1.77090851
      14.50000000      90.00000000     360.00000000      50.85498731       1.77091122
      14.60000000      90.00000000     360.00000000      50.85506522       1.77091393
      14.70000000      90.00000000     360.00000000      50.85514312       1.77091665
      14.80000000      90.00000000     360.00000000      50.85522101       1.77091936
      14.90000000      90.00000000     360.00000000      50.85529889       1.77092207
      15.00000000      90.00000000     360.00000000      50.85537676       1.77092478
      15.10000000      90.00000000     360.00000000      50.85545462       1.77092749
      15.20000000      90.00000000     360.00000000      50.85553247       1.77093020
      15.30000000      90.00000000     360.00000000      50.85561031       1.77093291
      15.40000000      90.00000000     360.00000000      50.85568814       1.77093562
      15.50000000      90.00000000     360.00000000      50.85576596       1.77093833
      15.60000000      90.00000000     360.00000000      50.85584377       1.77094104
      15.70000000      90.00000000     360.00000000      50.85592156       1.77094375
      15.80000000      90.00000000     360.00000000      50.85599935       1.77094646
      15.90000000      90.00000000     360.00000000      50.85607713       1.77094917
      16.00000000      90.00000000     360.00000000      50.85615489       1.77095188
      16.10000000      90.00000000     360.00000000      50.85623265       1.77095459
      16.20000000      90.00000000     360.00000000      50.85631039       1.77095729
      16.30000000      90.00000000     360.00000000      50.85638813       1.77096000
      16.40000000      90.00000000     360.00000000      50.85646585       1.77096271
      16.50000000      90.00000000     360.00000000      50.85654357       1.77096541
      16.60000000      90.00000000     360.00000000      50.85662127       1.77096812
      16.70000000      90.00000000     360.00000000      50.85669896       1.77097082
      16.80000000      90.00000000     360.00000000      50.85677665       1.77097353
      16.90000000      90.00000000     360.00000000      50.85685432       1.77097623
      17.00000000      90.00000000     360.00000000      50.85693198       1.77097894
      17.10000000      90.00000000     360.00000000      50.85700964       1.77098164
      17.20000000      90.00000000     360.00000000      50.85708728       1.77098435
      17.30000000      90.00000000     360.00000000      50.85716491       1.77098705
      17.40000000      90.00000000     360.00000000      50.85724253       1.77098975
      17.50000000      90.00000000     360.00000000      50.85732015       1.77099246
      17.60000000      90.00000000     360.00000000      50.85739775       1.77099516
      17.70000000      90.00000000     360.00000000      50.85747534       1.77099786
      17.80000000      90.00000000     360.00000000      50.85755292       1.77100056
      17.90000000      90.00000000     360.00000000      50.85763049       1.77100326
      18.00000000      90.00000000     360.00000000      50.85770805       1.77100596
      18.10000000      90.00000000     360.00000000      50.85778560       1.77100866
      18.20000000      90.00000000     360.00000000      50.85786314       1.77101136
      18.30000000      90.00000000     360.00000000      50.85794067       1.77101406
      18.40000000      90.00000000     360.00000000      50.85801819       1.77101676
      18.50000000      90.00000000     360.00000000      50.85809570       1.77101946
      18.60000000      90.00000000     360.00000000      50.85817320       1.77102216
      18.70000000      90.00000000     360.00000000      50.85825069       1.77102486
      18.80000000      90.00000000     360.00000000      50.85832817       1.77102756
      18.90000000      90.00000000     360.00000000      50.85840564       1.77103026
      19.00000000      90.00000000     360.00000000      50.85848310       1.77103295
      19.10000000      90.00000000     360.00000000      50.85856055       1.77103565
      19.20000000      90.00000000     360.00000000      50.85863799       1.77103835
      19.30000000      90.00000000     360.00000000      50.85871542       1.77104104
      19.40000000      90.00000000     360.00000000      50.85879284       1.77104374
      19.50000000      90.00000000     360.00000000      50.85887025       1.77104643
      19.60000000      90.00000000     360.00000000      50.85894765       1.77104913
      19.70000000      90.00000000     360.00000000      50.85902504       1.77105182
      19.80000000      90.00000000     360.00000000      50.85910241       1.77105452
      19.90000000      90.00000000     360.00000000      50.85917978       1.77105721
      20.00000000      90.00000000     360.00000000      50.85925714       1.77105991
      20.10000000      90.00000000     360.00000000      50.85933449       1.77106260
      20.20000000      90.00000000     360.00000000      50.85941183       1.77106529
      20.30000000      90.00000000     360.00000000      50.85948916       1.77106799
      20.40000000      90.00000000     360.00000000      50.85956648       1.77107068
      20.50000000      90.00000000     360.00000000      50.85964379       1.77107337
      20.60000000      90.00000000     360.00000000      50.85972109       1.77107606
      20.70000000      90.00000000     360.00000000      50.85979838       1.77107875
      20.80000000      90.00000000     360.00000000      50.85987566       1.77108145
      20.90000000      90.00000000     360.00000000      50.85995293       1.77108414
      21.00000000      90.00000000     360.00000000      50.86003019       1.77108683
      21.10000000      90.00000000     360.00000000      50.86010744       1.77108952
      21.20000000      90.00000000     360.00000000      50.86018468       1.77109221
      21.30000000      90.00000000     360.00000000      50.86026191       1.77109490
      21.40000000      90.00000000     360.00000000      50.86033913       1.77109759
      21.50000000      90.00000000     360.00000000      50.86041634       1.77110027
      21.60000000      90.00000000     360.00000000      50.86049354       1.77110296
      21.70000000      90.00000000     360.00000000      50.86057073       1.77110565
      21.80000000      90.00000000     360.00000000      50.86064792       1.77110834
      21.90000000      90.00000000     360.00000000      50.86072509       1.77111103
      22.00000000      90.00000000     360.00000000      50.86080225       1.77111371
      22.10000000      90.00000000     360.00000000      50.86087940       1.77111640
      22.20000000      90.00000000     360.00000000      50.86095654       1.77111909
      22.30000000      90.00000000     360.00000000      50.86103368       1.77112177
      22.40000000      90.00000000     360.00000000      50.86111080       1.77112446
      22.50000000      90.00000000     360.00000000      50.86118791       1.77112714
      22.60000000      90.00000000     360.00000000      50.86126502       1.77112983
      22.70000000      90.00000000     360.00000000      50.86134211       1.77113251
      22.80000000      90.00000000     360.00000000      50.86141919       1.77113520
      22.90000000      90.00000000     360.00000000      50.86149627       1.77113788
      23.00000000      90.00000000     360.00000000      50.86157333       1.77114056
