 # applied field (T), theta (degree), phi (degree), abs [muB/unitcell], abs [T]
       0.00000000       0.00000000       0.00000000      37.27708755       1.25468469
       0.10000000       1.08667644      45.00000000      37.27705212       1.25468350
       0.20000000       2.17335985      45.00000000      37.27694597       1.25467992
       0.30000000       3.26005719      45.00000000      37.27676946       1.25467398
       0.40000000       4.34677533      45.00000000      37.27652320       1.25466569
       0.50000000       5.43352108      45.00000000      37.27620808       1.25465509
       0.60000000       6.52030114      45.00000000      37.27582518       1.25464220
       0.70000000       7.60712205      45.00000000      37.27537583       1.25462708
       0.80000000       8.75115903      45.00000000      37.27483077       1.25460873
       0.90000000       9.83808370      45.00000000      37.27424995       1.25458918
       1.00000000      10.98224362      45.00000000      37.27357019       1.25456630
       1.10000000      12.12647665      45.00000000      37.27282492       1.25454122
       1.20000000      13.27078920      45.00000000      37.27201698       1.25451402
       1.30000000      14.41518727      45.00000000      37.27114939       1.25448482
       1.40000000      15.61686994      45.00000000      37.27017441       1.25445200
       1.50000000      16.81865959      45.00000000      37.26914074       1.25441721
       1.60000000      18.02056180      45.00000000      37.26805258       1.25438059
       1.70000000      19.22258164      45.00000000      37.26691432       1.25434227
       1.80000000      20.48194046      45.00000000      37.26566886       1.25430035
       1.90000000      21.74143829      45.00000000      37.26437828       1.25425692
       2.00000000      23.05830961      45.00000000      37.26298231       1.25420993
       2.10000000      24.43257940      45.00000000      37.26148139       1.25415941
       2.20000000      25.74978119      45.00000000      37.26001581       1.25411008
       2.30000000      27.18165514      45.00000000      37.25838573       1.25405522
       2.40000000      28.61372622      45.00000000      37.25673466       1.25399964
       2.50000000      30.10326504      45.00000000      37.25499918       1.25394123
       2.60000000      31.65029587      45.00000000      37.25318674       1.25388023
       2.70000000      33.25484216      45.00000000      37.25130667       1.25381695
       2.80000000      34.91692601      45.00000000      37.24937020       1.25375177
       2.90000000      36.69387478      45.00000000      37.24732002       1.25368276
       3.00000000      38.52841754      45.00000000      37.24524417       1.25361289
       3.10000000      40.47789452      45.00000000      37.24309339       1.25354050
       3.20000000      42.54234335      45.00000000      37.24089405       1.25346648
       3.30000000      44.77914028      45.00000000      37.23861507       1.25338977
       3.40000000      47.24568961      45.00000000      37.23624368       1.25330995
       3.50000000      49.94205349      45.00000000      37.23384387       1.25322918
       3.60000000      52.92564357      45.00000000      37.23143977       1.25314826
       3.70000000      56.42601106      45.00000000      37.22896053       1.25306481
       3.80000000      60.61537649      45.00000000      37.22648370       1.25298145
       3.90000000      66.06765264      45.00000000      37.22401311       1.25289829
       4.00000000      74.27493087      45.00000000      37.22166769       1.25281935
       4.10000000      90.00000000      45.00000000      37.22033883       1.25277462
       4.20000000      90.00000000      45.00000000      37.22059138       1.25278312
       4.30000000      90.00000000      45.00000000      37.22084392       1.25279162
       4.40000000      90.00000000      45.00000000      37.22109643       1.25280012
       4.50000000      90.00000000      45.00000000      37.22134892       1.25280862
       4.60000000      90.00000000      45.00000000      37.22160139       1.25281712
       4.70000000      90.00000000      45.00000000      37.22185384       1.25282561
       4.80000000      90.00000000      45.00000000      37.22210626       1.25283411
       4.90000000      90.00000000      45.00000000      37.22235866       1.25284261
       5.00000000      90.00000000      45.00000000      37.22261104       1.25285110
       5.10000000      90.00000000      45.00000000      37.22286340       1.25285959
       5.20000000      90.00000000      45.00000000      37.22311573       1.25286809
       5.30000000      90.00000000      45.00000000      37.22336804       1.25287658
       5.40000000      90.00000000      45.00000000      37.22362033       1.25288507
       5.50000000      90.00000000      45.00000000      37.22387260       1.25289356
       5.60000000      90.00000000      45.00000000      37.22412485       1.25290205
       5.70000000      90.00000000      45.00000000      37.22437707       1.25291054
       5.80000000      90.00000000      45.00000000      37.22462927       1.25291903
       5.90000000      90.00000000      45.00000000      37.22488145       1.25292752
       6.00000000      90.00000000      45.00000000      37.22513361       1.25293601
       6.10000000      90.00000000      45.00000000      37.22538575       1.25294449
       6.20000000      90.00000000      45.00000000      37.22563786       1.25295298
       6.30000000      90.00000000      45.00000000      37.22588995       1.25296146
       6.40000000      90.00000000      45.00000000      37.22614202       1.25296995
       6.50000000      90.00000000      45.00000000      37.22639407       1.25297843
       6.60000000      90.00000000      45.00000000      37.22664609       1.25298691
       6.70000000      90.00000000      45.00000000      37.22689809       1.25299540
       6.80000000      90.00000000      45.00000000      37.22715007       1.25300388
       6.90000000      90.00000000      45.00000000      37.22740203       1.25301236
       7.00000000      90.00000000      45.00000000      37.22765397       1.25302084
       7.10000000      90.00000000      45.00000000      37.22790588       1.25302932
       7.20000000      90.00000000      45.00000000      37.22815777       1.25303779
       7.30000000      90.00000000      45.00000000      37.22840965       1.25304627
       7.40000000      90.00000000      45.00000000      37.22866149       1.25305475
       7.50000000      90.00000000      45.00000000      37.22891332       1.25306322
       7.60000000      90.00000000      45.00000000      37.22916512       1.25307170
       7.70000000      90.00000000      45.00000000      37.22941691       1.25308017
       7.80000000      90.00000000      45.00000000      37.22966867       1.25308865
       7.90000000      90.00000000      45.00000000      37.22992041       1.25309712
       8.00000000      90.00000000      45.00000000      37.23017212       1.25310559
       8.10000000      90.00000000      45.00000000      37.23042382       1.25311407
       8.20000000      90.00000000      45.00000000      37.23067549       1.25312254
       8.30000000      90.00000000      45.00000000      37.23092714       1.25313101
       8.40000000      90.00000000      45.00000000      37.23117877       1.25313948
       8.50000000      90.00000000      45.00000000      37.23143037       1.25314794
       8.60000000      90.00000000      45.00000000      37.23168196       1.25315641
       8.70000000      90.00000000      45.00000000      37.23193352       1.25316488
       8.80000000      90.00000000      45.00000000      37.23218506       1.25317335
       8.90000000      90.00000000      45.00000000      37.23243658       1.25318181
       9.00000000      90.00000000      45.00000000      37.23268808       1.25319028
       9.10000000      90.00000000      45.00000000      37.23293956       1.25319874
       9.20000000      90.00000000      45.00000000      37.23319101       1.25320720
       9.30000000      90.00000000      45.00000000      37.23344244       1.25321567
       9.40000000      90.00000000      45.00000000      37.23369385       1.25322413
       9.50000000      90.00000000      45.00000000      37.23394524       1.25323259
       9.60000000      90.00000000      45.00000000      37.23419660       1.25324105
       9.70000000      90.00000000      45.00000000      37.23444795       1.25324951
       9.80000000      90.00000000      45.00000000      37.23469927       1.25325797
       9.90000000      90.00000000      45.00000000      37.23495057       1.25326643
      10.00000000      90.00000000      45.00000000      37.23520185       1.25327489
      10.10000000      90.00000000      45.00000000      37.23545311       1.25328334
      10.20000000      90.00000000      45.00000000      37.23570434       1.25329180
      10.30000000      90.00000000      45.00000000      37.23595556       1.25330025
      10.40000000      90.00000000      45.00000000      37.23620675       1.25330871
      10.50000000      90.00000000      45.00000000      37.23645792       1.25331716
      10.60000000      90.00000000      45.00000000      37.23670907       1.25332562
      10.70000000      90.00000000      45.00000000      37.23696019       1.25333407
      10.80000000      90.00000000      45.00000000      37.23721130       1.25334252
      10.90000000      90.00000000      45.00000000      37.23746238       1.25335097
      11.00000000      90.00000000      45.00000000      37.23771344       1.25335942
      11.10000000      90.00000000      45.00000000      37.23796448       1.25336787
      11.20000000      90.00000000      45.00000000      37.23821550       1.25337632
      11.30000000      90.00000000      45.00000000      37.23846650       1.25338477
      11.40000000      90.00000000      45.00000000      37.23871747       1.25339322
      11.50000000      90.00000000      45.00000000      37.23896843       1.25340166
      11.60000000      90.00000000      45.00000000      37.23921936       1.25341011
      11.70000000      90.00000000      45.00000000      37.23947027       1.25341855
      11.80000000      90.00000000      45.00000000      37.23972116       1.25342700
      11.90000000      90.00000000      45.00000000      37.23997202       1.25343544
      12.00000000      90.00000000      45.00000000      37.24022287       1.25344389
      12.10000000      90.00000000      45.00000000      37.24047369       1.25345233
      12.20000000      90.00000000      45.00000000      37.24072449       1.25346077
      12.30000000      90.00000000      45.00000000      37.24097527       1.25346921
      12.40000000      90.00000000      45.00000000      37.24122603       1.25347765
      12.50000000      90.00000000      45.00000000      37.24147677       1.25348609
      12.60000000      90.00000000      45.00000000      37.24172749       1.25349453
      12.70000000      90.00000000      45.00000000      37.24197818       1.25350297
      12.80000000      90.00000000      45.00000000      37.24222885       1.25351140
      12.90000000      90.00000000      45.00000000      37.24247950       1.25351984
      13.00000000      90.00000000      45.00000000      37.24273013       1.25352828
      13.10000000      90.00000000      45.00000000      37.24298074       1.25353671
      13.20000000      90.00000000      45.00000000      37.24323133       1.25354514
      13.30000000      90.00000000      45.00000000      37.24348189       1.25355358
      13.40000000      90.00000000      45.00000000      37.24373243       1.25356201
      13.50000000      90.00000000      45.00000000      37.24398296       1.25357044
      13.60000000      90.00000000      45.00000000      37.24423346       1.25357887
      13.70000000      90.00000000      45.00000000      37.24448393       1.25358731
      13.80000000      90.00000000      45.00000000      37.24473439       1.25359574
      13.90000000      90.00000000      45.00000000      37.24498483       1.25360416
      14.00000000      90.00000000      45.00000000      37.24523524       1.25361259
      14.10000000      90.00000000      45.00000000      37.24548564       1.25362102
      14.20000000      90.00000000      45.00000000      37.24573601       1.25362945
      14.30000000      90.00000000      45.00000000      37.24598636       1.25363787
      14.40000000      90.00000000      45.00000000      37.24623669       1.25364630
      14.50000000      90.00000000      45.00000000      37.24648699       1.25365473
      14.60000000      90.00000000      45.00000000      37.24673728       1.25366315
      14.70000000      90.00000000      45.00000000      37.24698754       1.25367157
      14.80000000      90.00000000      45.00000000      37.24723779       1.25368000
      14.90000000      90.00000000      45.00000000      37.24748801       1.25368842
      15.00000000      90.00000000      45.00000000      37.24773821       1.25369684
      15.10000000      90.00000000      45.00000000      37.24798839       1.25370526
      15.20000000      90.00000000      45.00000000      37.24823855       1.25371368
      15.30000000      90.00000000      45.00000000      37.24848868       1.25372210
      15.40000000      90.00000000      45.00000000      37.24873880       1.25373052
      15.50000000      90.00000000      45.00000000      37.24898889       1.25373893
      15.60000000      90.00000000      45.00000000      37.24923897       1.25374735
      15.70000000      90.00000000      45.00000000      37.24948902       1.25375577
      15.80000000      90.00000000      45.00000000      37.24973905       1.25376418
      15.90000000      90.00000000      45.00000000      37.24998906       1.25377260
      16.00000000      90.00000000      45.00000000      37.25023904       1.25378101
      16.10000000      90.00000000      45.00000000      37.25048901       1.25378943
      16.20000000      90.00000000      45.00000000      37.25073895       1.25379784
      16.30000000      90.00000000      45.00000000      37.25098888       1.25380625
      16.40000000      90.00000000      45.00000000      37.25123878       1.25381466
      16.50000000      90.00000000      45.00000000      37.25148866       1.25382307
      16.60000000      90.00000000      45.00000000      37.25173852       1.25383148
      16.70000000      90.00000000      45.00000000      37.25198836       1.25383989
      16.80000000      90.00000000      45.00000000      37.25223818       1.25384830
      16.90000000      90.00000000      45.00000000      37.25248797       1.25385671
      17.00000000      90.00000000      45.00000000      37.25273775       1.25386512
      17.10000000      90.00000000      45.00000000      37.25298750       1.25387352
      17.20000000      90.00000000      45.00000000      37.25323724       1.25388193
      17.30000000      90.00000000      45.00000000      37.25348695       1.25389033
      17.40000000      90.00000000      45.00000000      37.25373664       1.25389874
      17.50000000      90.00000000      45.00000000      37.25398631       1.25390714
      17.60000000      90.00000000      45.00000000      37.25423596       1.25391554
      17.70000000      90.00000000      45.00000000      37.25448558       1.25392394
      17.80000000      90.00000000      45.00000000      37.25473519       1.25393235
      17.90000000      90.00000000      45.00000000      37.25498477       1.25394075
      18.00000000      90.00000000      45.00000000      37.25523434       1.25394915
      18.10000000      90.00000000      45.00000000      37.25548388       1.25395755
      18.20000000      90.00000000      45.00000000      37.25573340       1.25396594
      18.30000000      90.00000000      45.00000000      37.25598290       1.25397434
      18.40000000      90.00000000      45.00000000      37.25623238       1.25398274
      18.50000000      90.00000000      45.00000000      37.25648184       1.25399113
      18.60000000      90.00000000      45.00000000      37.25673128       1.25399953
      18.70000000      90.00000000      45.00000000      37.25698070       1.25400793
      18.80000000      90.00000000      45.00000000      37.25723009       1.25401632
      18.90000000      90.00000000      45.00000000      37.25747947       1.25402471
      19.00000000      90.00000000      45.00000000      37.25772882       1.25403311
      19.10000000      90.00000000      45.00000000      37.25797815       1.25404150
      19.20000000      90.00000000      45.00000000      37.25822746       1.25404989
      19.30000000      90.00000000      45.00000000      37.25847675       1.25405828
      19.40000000      90.00000000      45.00000000      37.25872602       1.25406667
      19.50000000      90.00000000      45.00000000      37.25897527       1.25407506
      19.60000000      90.00000000      45.00000000      37.25922450       1.25408345
      19.70000000      90.00000000      45.00000000      37.25947371       1.25409184
      19.80000000      90.00000000      45.00000000      37.25972289       1.25410022
      19.90000000      90.00000000      45.00000000      37.25997206       1.25410861
      20.00000000      90.00000000      45.00000000      37.26022120       1.25411700
      20.10000000      90.00000000      45.00000000      37.26047032       1.25412538
      20.20000000      90.00000000      45.00000000      37.26071942       1.25413376
      20.30000000      90.00000000      45.00000000      37.26096851       1.25414215
      20.40000000      90.00000000      45.00000000      37.26121757       1.25415053
      20.50000000      90.00000000      45.00000000      37.26146660       1.25415891
      20.60000000      90.00000000      45.00000000      37.26171562       1.25416730
      20.70000000      90.00000000      45.00000000      37.26196462       1.25417568
      20.80000000      90.00000000      45.00000000      37.26221360       1.25418406
      20.90000000      90.00000000      45.00000000      37.26246255       1.25419244
      21.00000000      90.00000000      45.00000000      37.26271149       1.25420081
      21.10000000      90.00000000      45.00000000      37.26296040       1.25420919
      21.20000000      90.00000000      45.00000000      37.26320930       1.25421757
      21.30000000      90.00000000      45.00000000      37.26345817       1.25422595
      21.40000000      90.00000000      45.00000000      37.26370702       1.25423432
      21.50000000      90.00000000      45.00000000      37.26395585       1.25424270
      21.60000000      90.00000000      45.00000000      37.26420466       1.25425107
      21.70000000      90.00000000      45.00000000      37.26445345       1.25425945
      21.80000000      90.00000000      45.00000000      37.26470222       1.25426782
      21.90000000      90.00000000      45.00000000      37.26495097       1.25427619
      22.00000000      90.00000000      45.00000000      37.26519969       1.25428456
      22.10000000      90.00000000      45.00000000      37.26544840       1.25429293
      22.20000000      90.00000000      45.00000000      37.26569709       1.25430130
      22.30000000      90.00000000      45.00000000      37.26594575       1.25430967
      22.40000000      90.00000000      45.00000000      37.26619440       1.25431804
      22.50000000      90.00000000      45.00000000      37.26644302       1.25432641
      22.60000000      90.00000000      45.00000000      37.26669162       1.25433478
      22.70000000      90.00000000      45.00000000      37.26694020       1.25434315
      22.80000000      90.00000000      45.00000000      37.26718877       1.25435151
      22.90000000      90.00000000      45.00000000      37.26743731       1.25435988
      23.00000000      90.00000000      45.00000000      37.26768583       1.25436824
