 # applied field (T), theta (degree), phi (degree), abs for RE 3-4
     0.00000     1.43049   135.00000     0.02703     1.43049    45.00000     0.02703
     0.10000     2.02167   169.64198     0.02698     1.71112    87.37661     0.02694
     0.20000     3.09740   186.02073     0.02693     2.65163   111.17156     0.02685
     0.30000     4.18104   193.30037     0.02689     3.71451   120.52444     0.02677
     0.40000     5.42079   197.59495     0.02686     4.94392   126.10734     0.02669
     0.50000     6.67686   200.23691     0.02683     6.20840   129.29345     0.02662
     0.60000     7.82141   202.00674     0.02681     7.38168   130.94318     0.02657
     0.70000     9.08021   203.29564     0.02680     8.67094   132.26532     0.02651
     0.80000    10.33254   204.26305     0.02680     9.96391   133.11684     0.02647
     0.90000    11.46234   205.04943     0.02680    11.14746   133.49228     0.02643
     1.00000    12.69403   205.66910     0.02681    12.43779   133.82787     0.02640
     1.10000    13.91140   206.19001     0.02682    13.72314   133.98890     0.02637
     1.20000    15.11258   206.64203     0.02684    15.00158   134.01518     0.02636
     1.30000    16.40242   207.01621     0.02687    16.37790   134.01403     0.02635
     1.40000    17.56454   207.38784     0.02690    17.63672   133.83325     0.02635
     1.50000    18.80838   207.71074     0.02694    18.98822   133.63785     0.02635
     1.60000    19.92571   208.04737     0.02698    20.22237   133.31444     0.02636
     1.70000    21.11791   208.35346     0.02703    21.54445   132.97908     0.02638
     1.80000    22.37658   208.64031     0.02709    22.94881   132.61662     0.02641
     1.90000    23.50727   208.95436     0.02714    24.23516   132.16079     0.02644
     2.00000    24.60670   209.27673     0.02719    25.50391   131.65751     0.02648
     2.10000    25.76107   209.59672     0.02726    26.84832   131.12786     0.02652
     2.20000    26.96042   209.92391     0.02734    28.26239   130.56104     0.02658
     2.30000    28.03253   210.28480     0.02740    29.56191   129.93455     0.02664
     2.40000    29.14104   210.66224     0.02748    30.92754   129.27097     0.02670
     2.50000    30.20086   211.06937     0.02755    32.26871   128.56343     0.02677
     2.60000    31.28157   211.50771     0.02764    33.66884   127.81087     0.02686
     2.70000    32.30474   211.98579     0.02771    35.04198   127.01513     0.02695
     2.80000    33.33261   212.51151     0.02779    36.46749   126.16852     0.02705
     2.90000    34.29441   213.08876     0.02787    37.86420   125.28077     0.02715
     3.00000    35.29948   213.74488     0.02795    39.38089   124.32054     0.02728
     3.10000    36.17281   214.45864     0.02801    40.79186   123.33797     0.02739
     3.20000    37.06680   215.28278     0.02806    42.31293   122.27653     0.02754
     3.30000    37.91712   216.22448     0.02811    43.86570   121.15271     0.02770
     3.40000    38.71587   217.30568     0.02813    45.44543   119.96633     0.02787
     3.50000    39.45807   218.55152     0.02812    47.04732   118.71860     0.02806
     3.60000    40.17215   220.03234     0.02808    48.72612   117.38066     0.02827
     3.70000    40.85311   221.80196     0.02799    50.46932   115.95246     0.02852
     3.80000    41.53152   223.98047     0.02783    52.31817   114.40319     0.02881
     3.90000    42.20751   226.59750     0.02759    54.19852   112.77278     0.02912
     4.00000    43.00604   229.96203     0.02725    56.24060   110.96772     0.02950
     4.10000    44.05489   234.23619     0.02676    58.39847   109.00641     0.02994
     4.20000    45.74607   239.93785     0.02608    60.78578   106.78503     0.03049
     4.30000    48.94272   247.62149     0.02519    63.47827   104.21324     0.03116
     4.40000    56.34045   258.22711     0.02417    66.80219   100.97204     0.03205
     4.50000   100.09893   265.50509     0.03050    79.90107    94.49491     0.03050
     4.60000   100.10158   265.69679     0.03048    79.89842    94.30321     0.03048
     4.70000   100.10413   265.88863     0.03047    79.89587    94.11137     0.03047
     4.80000   100.10657   266.08060     0.03046    79.89343    93.91940     0.03046
     4.90000   100.10890   266.27270     0.03045    79.89110    93.72730     0.03045
     5.00000   100.11112   266.46492     0.03044    79.88888    93.53508     0.03044
     5.10000   100.11322   266.65727     0.03043    79.88678    93.34273     0.03043
     5.20000   100.11522   266.84973     0.03041    79.88478    93.15027     0.03041
     5.30000   100.11711   267.04230     0.03040    79.88289    92.95770     0.03040
     5.40000   100.11889   267.23498     0.03039    79.88111    92.76502     0.03039
     5.50000   100.12055   267.42776     0.03038    79.87945    92.57224     0.03038
     5.60000   100.12210   267.62064     0.03037    79.87790    92.37936     0.03037
     5.70000   100.12354   267.81361     0.03037    79.87646    92.18639     0.03037
     5.80000   100.12487   268.00667     0.03036    79.87513    91.99333     0.03036
     5.90000   100.12609   268.19982     0.03035    79.87391    91.80018     0.03035
     6.00000   100.12719   268.39305     0.03034    79.87281    91.60695     0.03034
     6.10000   100.12819   268.58636     0.03033    79.87181    91.41364     0.03033
     6.20000   100.12907   268.77974     0.03033    79.87093    91.22026     0.03033
     6.30000   100.12983   268.97319     0.03032    79.87017    91.02681     0.03032
     6.40000   100.13049   269.16670     0.03031    79.86951    90.83330     0.03031
     6.50000   100.13103   269.36027     0.03030    79.86897    90.63973     0.03030
     6.60000   100.13145   269.55390     0.03030    79.86855    90.44610     0.03030
     6.70000   100.13177   269.74758     0.03029    79.86823    90.25242     0.03029
     6.80000   100.13197   269.94130     0.03029    79.86803    90.05870     0.03029
     6.90000   100.13205   270.13507     0.03028    79.86795    89.86493     0.03028
     7.00000   100.13203   270.32888     0.03028    79.86797    89.67112     0.03028
     7.10000   100.13189   270.52271     0.03027    79.86811    89.47729     0.03027
     7.20000   100.13163   270.71658     0.03027    79.86837    89.28342     0.03027
     7.30000   100.13126   270.91047     0.03026    79.86874    89.08953     0.03026
     7.40000   100.13078   271.10438     0.03026    79.86922    88.89562     0.03026
     7.50000   100.13018   271.29831     0.03026    79.86982    88.70169     0.03026
     7.60000   100.12948   271.49225     0.03026    79.87052    88.50775     0.03026
     7.70000   100.12865   271.68620     0.03025    79.87135    88.31380     0.03025
     7.80000   100.12771   271.88014     0.03025    79.87229    88.11986     0.03025
     7.90000   100.12666   272.07409     0.03025    79.87334    87.92591     0.03025
     8.00000   100.12550   272.26803     0.03025    79.87450    87.73197     0.03025
     8.10000   100.12422   272.46196     0.03025    79.87578    87.53804     0.03025
     8.20000   100.12283   272.65587     0.03025    79.87717    87.34413     0.03025
     8.30000   100.12132   272.84976     0.03025    79.87868    87.15024     0.03025
     8.40000   100.11970   273.04363     0.03025    79.88030    86.95637     0.03025
     8.50000   100.11797   273.23747     0.03025    79.88203    86.76253     0.03025
     8.60000   100.11613   273.43128     0.03025    79.88387    86.56872     0.03025
     8.70000   100.11417   273.62505     0.03025    79.88583    86.37495     0.03025
     8.80000   100.11210   273.81878     0.03025    79.88790    86.18122     0.03025
     8.90000   100.10991   274.01246     0.03025    79.89009    85.98754     0.03025
     9.00000   100.10762   274.20610     0.03025    79.89238    85.79390     0.03025
     9.10000   100.10521   274.39967     0.03025    79.89479    85.60033     0.03025
     9.20000   100.10268   274.59319     0.03026    79.89732    85.40681     0.03026
     9.30000   100.10005   274.78664     0.03026    79.89995    85.21336     0.03026
     9.40000   100.09730   274.98003     0.03026    79.90270    85.01997     0.03026
     9.50000   100.09445   275.17334     0.03027    79.90555    84.82666     0.03027
     9.60000   100.09148   275.36658     0.03027    79.90852    84.63342     0.03027
     9.70000   100.08840   275.55974     0.03027    79.91160    84.44026     0.03027
     9.80000   100.08520   275.75281     0.03028    79.91480    84.24719     0.03028
     9.90000   100.08190   275.94579     0.03028    79.91810    84.05421     0.03028
    10.00000   100.07849   276.13868     0.03029    79.92151    83.86132     0.03029
    10.10000   100.07497   276.33147     0.03029    79.92503    83.66853     0.03029
    10.20000   100.07133   276.52415     0.03030    79.92867    83.47585     0.03030
    10.30000   100.06759   276.71673     0.03031    79.93241    83.28327     0.03031
    10.40000   100.06374   276.90920     0.03031    79.93626    83.09080     0.03031
    10.50000   100.05978   277.10155     0.03032    79.94022    82.89845     0.03032
    10.60000   100.05571   277.29379     0.03033    79.94429    82.70621     0.03033
    10.70000   100.05153   277.48590     0.03034    79.94847    82.51410     0.03034
    10.80000   100.04724   277.67788     0.03034    79.95276    82.32212     0.03034
    10.90000   100.04285   277.86973     0.03035    79.95715    82.13027     0.03035
    11.00000   100.03835   278.06145     0.03036    79.96165    81.93855     0.03036
    11.10000   100.03374   278.25302     0.03037    79.96626    81.74698     0.03037
    11.20000   100.02902   278.44445     0.03038    79.97098    81.55555     0.03038
    11.30000   100.02420   278.63574     0.03039    79.97580    81.36426     0.03039
    11.40000   100.01928   278.82686     0.03040    79.98072    81.17314     0.03040
    11.50000   100.01424   279.01784     0.03041    79.98576    80.98216     0.03041
    11.60000   100.00911   279.20865     0.03042    79.99089    80.79135     0.03042
    11.70000   100.00387   279.39930     0.03043    79.99613    80.60070     0.03043
    11.80000    99.99852   279.58978     0.03044    80.00148    80.41022     0.03044
    11.90000    99.99307   279.78009     0.03045    80.00693    80.21991     0.03045
    12.00000    99.98752   279.97022     0.03046    80.01248    80.02978     0.03046
    12.10000    99.98186   280.16017     0.03048    80.01814    79.83983     0.03048
    12.20000    99.97611   280.34993     0.03049    80.02389    79.65007     0.03049
    12.30000    99.97025   280.53951     0.03050    80.02975    79.46049     0.03050
    12.40000    99.96429   280.72890     0.03051    80.03571    79.27110     0.03051
    12.50000    99.95823   280.91809     0.03053    80.04177    79.08191     0.03053
    12.60000    99.95207   281.10708     0.03054    80.04793    78.89292     0.03054
    12.70000    99.94581   281.29587     0.03055    80.05419    78.70413     0.03055
    12.80000    99.93945   281.48445     0.03057    80.06055    78.51555     0.03057
    12.90000    99.93299   281.67282     0.03058    80.06701    78.32718     0.03058
    13.00000    99.92643   281.86097     0.03060    80.07357    78.13903     0.03060
    13.10000    99.91978   282.04891     0.03061    80.08022    77.95109     0.03061
    13.20000    99.91303   282.23662     0.03063    80.08697    77.76338     0.03063
    13.30000    99.90618   282.42411     0.03065    80.09382    77.57589     0.03065
    13.40000    99.89924   282.61138     0.03066    80.10076    77.38862     0.03066
    13.50000    99.89220   282.79840     0.03068    80.10780    77.20160     0.03068
    13.60000    99.88507   282.98520     0.03070    80.11493    77.01480     0.03070
    13.70000    99.87784   283.17175     0.03071    80.12216    76.82825     0.03071
    13.80000    99.87052   283.35806     0.03073    80.12948    76.64194     0.03073
    13.90000    99.86311   283.54412     0.03075    80.13689    76.45588     0.03075
    14.00000    99.85560   283.72994     0.03077    80.14440    76.27006     0.03077
    14.10000    99.84800   283.91550     0.03078    80.15200    76.08450     0.03078
    14.20000    99.84031   284.10080     0.03080    80.15969    75.89920     0.03080
    14.30000    99.83254   284.28585     0.03082    80.16746    75.71415     0.03082
    14.40000    99.82467   284.47063     0.03084    80.17533    75.52937     0.03084
    14.50000    99.81671   284.65514     0.03086    80.18329    75.34486     0.03086
    14.60000    99.80866   284.83939     0.03088    80.19134    75.16061     0.03088
    14.70000    99.80053   285.02336     0.03090    80.19947    74.97664     0.03090
    14.80000    99.79231   285.20705     0.03092    80.20769    74.79295     0.03092
    14.90000    99.78400   285.39047     0.03094    80.21600    74.60953     0.03094
    15.00000    99.77561   285.57361     0.03096    80.22439    74.42639     0.03096
    15.10000    99.76713   285.75646     0.03099    80.23287    74.24354     0.03099
    15.20000    99.75856   285.93902     0.03101    80.24144    74.06098     0.03101
    15.30000    99.74992   286.12129     0.03103    80.25008    73.87871     0.03103
    15.40000    99.74119   286.30326     0.03105    80.25881    73.69674     0.03105
    15.50000    99.73238   286.48494     0.03107    80.26762    73.51506     0.03107
    15.60000    99.72348   286.66632     0.03110    80.27652    73.33368     0.03110
    15.70000    99.71451   286.84739     0.03112    80.28549    73.15261     0.03112
    15.80000    99.70545   287.02816     0.03114    80.29455    72.97184     0.03114
    15.90000    99.69631   287.20862     0.03117    80.30369    72.79138     0.03117
    16.00000    99.68710   287.38877     0.03119    80.31290    72.61123     0.03119
    16.10000    99.67781   287.56861     0.03122    80.32219    72.43139     0.03122
    16.20000    99.66844   287.74813     0.03124    80.33156    72.25187     0.03124
    16.30000    99.65899   287.92733     0.03127    80.34101    72.07267     0.03127
    16.40000    99.64947   288.10620     0.03129    80.35053    71.89380     0.03129
    16.50000    99.63987   288.28476     0.03132    80.36013    71.71524     0.03132
    16.60000    99.63019   288.46298     0.03134    80.36981    71.53702     0.03134
    16.70000    99.62045   288.64088     0.03137    80.37955    71.35912     0.03137
    16.80000    99.61063   288.81844     0.03140    80.38937    71.18156     0.03140
    16.90000    99.60073   288.99567     0.03142    80.39927    71.00433     0.03142
    17.00000    99.59077   289.17256     0.03145    80.40923    70.82744     0.03145
    17.10000    99.58073   289.34911     0.03148    80.41927    70.65089     0.03148
    17.20000    99.57063   289.52532     0.03151    80.42937    70.47468     0.03151
    17.30000    99.56045   289.70119     0.03153    80.43955    70.29881     0.03153
    17.40000    99.55021   289.87671     0.03156    80.44979    70.12329     0.03156
    17.50000    99.53989   290.05188     0.03159    80.46011    69.94812     0.03159
    17.60000    99.52951   290.22670     0.03162    80.47049    69.77330     0.03162
    17.70000    99.51907   290.40117     0.03165    80.48093    69.59883     0.03165
    17.80000    99.50855   290.57528     0.03168    80.49145    69.42472     0.03168
    17.90000    99.49798   290.74903     0.03171    80.50202    69.25097     0.03171
    18.00000    99.48733   290.92243     0.03174    80.51267    69.07757     0.03174
    18.10000    99.47663   291.09546     0.03177    80.52337    68.90454     0.03177
    18.20000    99.46586   291.26813     0.03180    80.53414    68.73187     0.03180
    18.30000    99.45503   291.44044     0.03183    80.54497    68.55956     0.03183
    18.40000    99.44414   291.61238     0.03186    80.55586    68.38762     0.03186
    18.50000    99.43318   291.78394     0.03189    80.56682    68.21606     0.03189
    18.60000    99.42217   291.95514     0.03192    80.57783    68.04486     0.03192
    18.70000    99.41110   292.12597     0.03196    80.58890    67.87403     0.03196
    18.80000    99.39997   292.29642     0.03199    80.60003    67.70358     0.03199
    18.90000    99.38878   292.46649     0.03202    80.61122    67.53351     0.03202
    19.00000    99.37754   292.63619     0.03205    80.62246    67.36381     0.03205
    19.10000    99.36624   292.80550     0.03209    80.63376    67.19450     0.03209
    19.20000    99.35488   292.97444     0.03212    80.64512    67.02556     0.03212
    19.30000    99.34347   293.14299     0.03215    80.65653    66.85701     0.03215
    19.40000    99.33200   293.31116     0.03219    80.66800    66.68884     0.03219
    19.50000    99.32048   293.47894     0.03222    80.67952    66.52106     0.03222
    19.60000    99.30891   293.64633     0.03226    80.69109    66.35367     0.03226
    19.70000    99.29729   293.81333     0.03229    80.70271    66.18667     0.03229
    19.80000    99.28562   293.97994     0.03232    80.71438    66.02006     0.03232
    19.90000    99.27389   294.14617     0.03236    80.72611    65.85383     0.03236
    20.00000    99.26212   294.31199     0.03239    80.73788    65.68801     0.03239
    20.10000    99.25030   294.47742     0.03243    80.74970    65.52258     0.03243
    20.20000    99.23843   294.64246     0.03247    80.76157    65.35754     0.03247
    20.30000    99.22651   294.80710     0.03250    80.77349    65.19290     0.03250
    20.40000    99.21454   294.97134     0.03254    80.78546    65.02866     0.03254
    20.50000    99.20253   295.13518     0.03258    80.79747    64.86482     0.03258
    20.60000    99.19048   295.29862     0.03261    80.80952    64.70138     0.03261
    20.70000    99.17838   295.46165     0.03265    80.82162    64.53835     0.03265
    20.80000    99.16623   295.62429     0.03269    80.83377    64.37571     0.03269
    20.90000    99.15405   295.78652     0.03272    80.84595    64.21348     0.03272
    21.00000    99.14182   295.94834     0.03276    80.85818    64.05166     0.03276
    21.10000    99.12954   296.10975     0.03280    80.87046    63.89025     0.03280
    21.20000    99.11723   296.27076     0.03284    80.88277    63.72924     0.03284
    21.30000    99.10488   296.43136     0.03288    80.89512    63.56864     0.03288
    21.40000    99.09249   296.59155     0.03292    80.90751    63.40845     0.03292
    21.50000    99.08006   296.75133     0.03296    80.91994    63.24867     0.03296
    21.60000    99.06759   296.91070     0.03300    80.93241    63.08930     0.03300
    21.70000    99.05508   297.06966     0.03304    80.94492    62.93034     0.03304
    21.80000    99.04254   297.22820     0.03307    80.95746    62.77180     0.03307
    21.90000    99.02996   297.38633     0.03312    80.97004    62.61367     0.03312
    22.00000    99.01735   297.54405     0.03316    80.98265    62.45595     0.03316
    22.10000    99.00470   297.70134     0.03320    80.99530    62.29866     0.03320
    22.20000    98.99201   297.85823     0.03324    81.00799    62.14177     0.03324
    22.30000    98.97930   298.01470     0.03328    81.02070    61.98530     0.03328
    22.40000    98.96655   298.17074     0.03332    81.03345    61.82926     0.03332
    22.50000    98.95377   298.32638     0.03336    81.04623    61.67362     0.03336
    22.60000    98.94095   298.48159     0.03340    81.05905    61.51841     0.03340
    22.70000    98.92811   298.63638     0.03344    81.07189    61.36362     0.03344
    22.80000    98.91524   298.79076     0.03349    81.08476    61.20924     0.03349
    22.90000    98.90233   298.94471     0.03353    81.09767    61.05529     0.03353
    23.00000    98.88940   299.09824     0.03357    81.11060    60.90176     0.03357
    23.10000    98.87644   299.25136     0.03362    81.12356    60.74864     0.03362
    23.20000    98.86346   299.40405     0.03366    81.13654    60.59595     0.03366
    23.30000    98.85044   299.55631     0.03370    81.14956    60.44369     0.03370
