 # applied field (T), theta (degree), phi (degree), abs for RE 3-4
     0.00000   180.00000   180.00000     4.13143   180.00000   180.00000     4.13143
     0.10000   179.77751   180.00000     4.13142   179.75431   180.00000     4.13143
     0.20000   179.51038   180.00000     4.13137   179.45942   180.00000     4.13141
     0.30000   179.28788   180.00000     4.13130   179.21372   180.00000     4.13139
     0.40000   179.06536   180.00000     4.13120   178.96801   180.00000     4.13136
     0.50000   178.84282   180.00000     4.13108   178.72229   180.00000     4.13131
     0.60000   178.57562   180.00000     4.13089   178.42734   180.00000     4.13125
     0.70000   178.35302   180.00000     4.13071   178.18157   180.00000     4.13119
     0.80000   178.13040   180.00000     4.13050   177.93578   180.00000     4.13112
     0.90000   177.86307   180.00000     4.13021   177.64073   180.00000     4.13102
     1.00000   177.64035   180.00000     4.12994   177.39487   180.00000     4.13093
     1.10000   177.41759   180.00000     4.12965   177.14898   180.00000     4.13083
     1.20000   177.15008   180.00000     4.12926   176.85379   180.00000     4.13070
     1.30000   176.92721   180.00000     4.12891   176.60781   180.00000     4.13058
     1.40000   176.70427   180.00000     4.12853   176.36178   180.00000     4.13045
     1.50000   176.43653   180.00000     4.12804   176.06641   180.00000     4.13029
     1.60000   176.21344   180.00000     4.12760   175.82027   180.00000     4.13014
     1.70000   175.99028   180.00000     4.12714   175.57407   180.00000     4.12999
     1.80000   175.76704   180.00000     4.12664   175.32780   180.00000     4.12982
     1.90000   175.49891   180.00000     4.12602   175.03214   180.00000     4.12961
     2.00000   175.27548   180.00000     4.12547   174.78574   180.00000     4.12943
     2.10000   175.05195   180.00000     4.12489   174.53926   180.00000     4.12923
     2.20000   174.78347   180.00000     4.12417   174.24333   180.00000     4.12899
     2.30000   174.55972   180.00000     4.12353   173.99668   180.00000     4.12878
     2.40000   174.33587   180.00000     4.12287   173.74995   180.00000     4.12855
     2.50000   174.06697   180.00000     4.12204   173.45371   180.00000     4.12828
     2.60000   173.84287   180.00000     4.12132   173.20679   180.00000     4.12804
     2.70000   173.61864   180.00000     4.12057   172.95978   180.00000     4.12779
     2.80000   173.34928   180.00000     4.11964   172.66318   180.00000     4.12748
     2.90000   173.12477   180.00000     4.11883   172.41595   180.00000     4.12721
     3.00000   172.90013   180.00000     4.11800   172.16863   180.00000     4.12693
     3.10000   172.63025   180.00000     4.11696   171.87163   180.00000     4.12658
     3.20000   172.40529   180.00000     4.11607   171.62406   180.00000     4.12629
     3.30000   172.18019   180.00000     4.11515   171.37639   180.00000     4.12598
     3.40000   171.90973   180.00000     4.11401   171.07896   180.00000     4.12560
     3.50000   171.68428   180.00000     4.11303   170.83102   180.00000     4.12528
     3.60000   171.41340   180.00000     4.11182   170.53327   180.00000     4.12488
     3.70000   171.18758   180.00000     4.11078   170.28505   180.00000     4.12454
     3.80000   170.96159   180.00000     4.10971   170.03670   180.00000     4.12418
     3.90000   170.69004   180.00000     4.10840   169.73845   180.00000     4.12375
     4.00000   170.46365   180.00000     4.10727   169.48981   180.00000     4.12338
     4.10000   170.23708   180.00000     4.10612   169.24102   180.00000     4.12300
     4.20000   169.96481   180.00000     4.10470   168.94223   180.00000     4.12254
     4.30000   169.73780   180.00000     4.10349   168.69312   180.00000     4.12214
     4.40000   169.46501   180.00000     4.10200   168.39393   180.00000     4.12165
     4.50000   169.23755   180.00000     4.10073   168.14449   180.00000     4.12123
     4.60000   169.00989   180.00000     4.09943   167.89488   180.00000     4.12081
     4.70000   168.73628   180.00000     4.09784   167.59509   180.00000     4.12029
     4.80000   168.50813   180.00000     4.09648   167.34513   180.00000     4.11984
     4.90000   168.23393   180.00000     4.09481   167.04489   180.00000     4.11930
     5.00000   168.00528   180.00000     4.09339   166.79456   180.00000     4.11884
     5.10000   167.73046   180.00000     4.09166   166.49387   180.00000     4.11828
     5.20000   167.50128   180.00000     4.09018   166.24314   180.00000     4.11780
     5.30000   167.27186   180.00000     4.08867   165.99223   180.00000     4.11731
     5.40000   166.99610   180.00000     4.08683   165.69084   180.00000     4.11671
     5.50000   166.76612   180.00000     4.08526   165.43952   180.00000     4.11621
     5.60000   166.48968   180.00000     4.08335   165.13763   180.00000     4.11559
     5.70000   166.25912   180.00000     4.08173   164.88589   180.00000     4.11507
     5.80000   165.98197   180.00000     4.07974   164.58348   180.00000     4.11443
     5.90000   165.75080   180.00000     4.07805   164.33129   180.00000     4.11389
     6.00000   165.47293   180.00000     4.07600   164.02834   180.00000     4.11323
     6.10000   165.24114   180.00000     4.07425   163.77570   180.00000     4.11267
     6.20000   164.96250   180.00000     4.07213   163.47220   180.00000     4.11199
     6.30000   164.73006   180.00000     4.07032   163.21909   180.00000     4.11142
     6.40000   164.45063   180.00000     4.06812   162.91502   180.00000     4.11072
     6.50000   164.21753   180.00000     4.06626   162.66142   180.00000     4.11012
     6.60000   163.93729   180.00000     4.06399   162.35676   180.00000     4.10940
     6.70000   163.70349   180.00000     4.06206   162.10267   180.00000     4.10879
     6.80000   163.42241   180.00000     4.05972   161.79740   180.00000     4.10805
     6.90000   163.14086   180.00000     4.05734   161.49179   180.00000     4.10730
     7.00000   162.90595   180.00000     4.05532   161.23690   180.00000     4.10666
     7.10000   162.62352   180.00000     4.05287   160.93067   180.00000     4.10589
     7.20000   162.38786   180.00000     4.05080   160.67524   180.00000     4.10524
     7.30000   162.10451   180.00000     4.04828   160.36835   180.00000     4.10445
     7.40000   161.82066   180.00000     4.04572   160.06111   180.00000     4.10364
     7.50000   161.58380   180.00000     4.04355   159.80483   180.00000     4.10297
     7.60000   161.29899   180.00000     4.04092   159.49691   180.00000     4.10214
     7.70000   161.01365   180.00000     4.03826   159.18862   180.00000     4.10131
     7.80000   160.77554   180.00000     4.03600   158.93145   180.00000     4.10061
     7.90000   160.48920   180.00000     4.03327   158.62246   180.00000     4.09976
     8.00000   160.20231   180.00000     4.03050   158.31308   180.00000     4.09890
     8.10000   159.96288   180.00000     4.02815   158.05500   180.00000     4.09817
     8.20000   159.67495   180.00000     4.02531   157.74489   180.00000     4.09729
     8.30000   159.38644   180.00000     4.02243   157.43439   180.00000     4.09640
     8.40000   159.14564   180.00000     4.02000   157.17536   180.00000     4.09565
     8.50000   158.85604   180.00000     4.01706   156.86410   180.00000     4.09474
     8.60000   158.56585   180.00000     4.01408   156.55244   180.00000     4.09382
     8.70000   158.27504   180.00000     4.01106   156.24035   180.00000     4.09289
     8.80000   158.03229   180.00000     4.00851   155.97999   180.00000     4.09211
     8.90000   157.74034   180.00000     4.00543   155.66712   180.00000     4.09116
     9.00000   157.44775   180.00000     4.00231   155.35382   180.00000     4.09021
     9.10000   157.15452   180.00000     3.99916   155.04009   180.00000     4.08924
     9.20000   156.86063   180.00000     3.99597   154.72592   180.00000     4.08827
     9.30000   156.61529   180.00000     3.99329   154.46379   180.00000     4.08745
     9.40000   156.32018   180.00000     3.99004   154.14880   180.00000     4.08646
     9.50000   156.02440   180.00000     3.98675   153.83335   180.00000     4.08545
     9.60000   155.72792   180.00000     3.98344   153.51745   180.00000     4.08444
     9.70000   155.43076   180.00000     3.98009   153.20108   180.00000     4.08343
     9.80000   155.13289   180.00000     3.97670   152.88425   180.00000     4.08240
     9.90000   154.83430   180.00000     3.97329   152.56695   180.00000     4.08136
    10.00000   154.53499   180.00000     3.96984   152.24918   180.00000     4.08032
    10.10000   154.23496   180.00000     3.96636   151.93092   180.00000     4.07926
    10.20000   153.93418   180.00000     3.96286   151.61219   180.00000     4.07820
    10.30000   153.63265   180.00000     3.95932   151.29297   180.00000     4.07713
    10.40000   153.33037   180.00000     3.95575   150.97325   180.00000     4.07605
    10.50000   153.02732   180.00000     3.95215   150.65305   180.00000     4.07496
    10.60000   152.72349   180.00000     3.94852   150.33234   180.00000     4.07387
    10.70000   152.41888   180.00000     3.94487   150.01113   180.00000     4.07276
    10.80000   152.11347   180.00000     3.94118   149.68942   180.00000     4.07165
    10.90000   151.80726   180.00000     3.93747   149.36720   180.00000     4.07053
    11.00000   151.50024   180.00000     3.93373   149.04446   180.00000     4.06941
    11.10000   151.14097   180.00000     3.92935   148.66725   180.00000     4.06808
    11.20000   150.83217   180.00000     3.92555   148.34339   180.00000     4.06694
    11.30000   150.52252   180.00000     3.92174   148.01900   180.00000     4.06579
    11.40000   150.21202   180.00000     3.91789   147.69408   180.00000     4.06463
    11.50000   149.90067   180.00000     3.91403   147.36863   180.00000     4.06347
    11.60000   149.53628   180.00000     3.90950   146.98824   180.00000     4.06210
    11.70000   149.22304   180.00000     3.90558   146.66161   180.00000     4.06092
    11.80000   148.90891   180.00000     3.90165   146.33445   180.00000     4.05973
    11.90000   148.54126   180.00000     3.89704   145.95205   180.00000     4.05834
    12.00000   148.22518   180.00000     3.89306   145.62369   180.00000     4.05714
    12.10000   147.90819   180.00000     3.88907   145.29478   180.00000     4.05593
    12.20000   147.53717   180.00000     3.88439   144.91033   180.00000     4.05451
    12.30000   147.21817   180.00000     3.88036   144.58021   180.00000     4.05329
    12.40000   146.84478   180.00000     3.87564   144.19433   180.00000     4.05186
    12.50000   146.52373   180.00000     3.87157   143.86298   180.00000     4.05063
    12.60000   146.14793   180.00000     3.86681   143.47566   180.00000     4.04918
    12.70000   145.82479   180.00000     3.86272   143.14306   180.00000     4.04793
    12.80000   145.44654   180.00000     3.85793   142.75429   180.00000     4.04647
    12.90000   145.06694   180.00000     3.85313   142.36472   180.00000     4.04500
    13.00000   144.74051   180.00000     3.84900   142.03018   180.00000     4.04374
    13.10000   144.35839   180.00000     3.84417   141.63913   180.00000     4.04226
    13.20000   143.97489   180.00000     3.83934   141.24728   180.00000     4.04077
    13.30000   143.59001   180.00000     3.83449   140.85461   180.00000     4.03928
    13.40000   143.25900   180.00000     3.83033   140.51740   180.00000     4.03799
    13.50000   142.87150   180.00000     3.82547   140.12322   180.00000     4.03649
    13.60000   142.48257   180.00000     3.82061   139.72822   180.00000     4.03498
    13.70000   142.09221   180.00000     3.81575   139.33240   180.00000     4.03346
    13.80000   141.70041   180.00000     3.81089   138.93574   180.00000     4.03194
    13.90000   141.30715   180.00000     3.80602   138.53825   180.00000     4.03041
    14.00000   140.91243   180.00000     3.80117   138.13993   180.00000     4.02888
    14.10000   140.51622   180.00000     3.79631   137.74076   180.00000     4.02735
    14.20000   140.11854   180.00000     3.79147   137.34075   180.00000     4.02581
    14.30000   139.66221   180.00000     3.78594   136.88256   180.00000     4.02404
    14.40000   139.26131   180.00000     3.78112   136.48073   180.00000     4.02249
    14.50000   138.85890   180.00000     3.77630   136.07805   180.00000     4.02094
    14.60000   138.39715   180.00000     3.77082   135.61679   180.00000     4.01917
    14.70000   137.99147   180.00000     3.76604   135.21227   180.00000     4.01761
    14.80000   137.58426   180.00000     3.76128   134.80689   180.00000     4.01605
    14.90000   137.11700   180.00000     3.75587   134.34253   180.00000     4.01426
    15.00000   136.70647   180.00000     3.75116   133.93529   180.00000     4.01270
    15.10000   136.23542   180.00000     3.74581   133.46881   180.00000     4.01091
    15.20000   135.76233   180.00000     3.74049   133.00120   180.00000     4.00911
    15.30000   135.28720   180.00000     3.73521   132.53244   180.00000     4.00732
    15.40000   134.86977   180.00000     3.73062   132.12133   180.00000     4.00575
    15.50000   134.39081   180.00000     3.72542   131.65042   180.00000     4.00396
    15.60000   133.90980   180.00000     3.72027   131.17837   180.00000     4.00216
    15.70000   133.42673   180.00000     3.71516   130.70516   180.00000     4.00037
    15.80000   132.88086   180.00000     3.70948   130.17143   180.00000     3.99835
    15.90000   132.39344   180.00000     3.70449   129.69578   180.00000     3.99656
    16.00000   131.90398   180.00000     3.69956   129.21898   180.00000     3.99477
    16.10000   131.41246   180.00000     3.69469   128.74102   180.00000     3.99298
    16.20000   130.85710   180.00000     3.68928   128.20194   180.00000     3.99098
    16.30000   130.29917   180.00000     3.68396   127.66140   180.00000     3.98897
    16.40000   129.80105   180.00000     3.67930   127.17968   180.00000     3.98720
    16.50000   129.23828   180.00000     3.67415   126.63639   180.00000     3.98521
    16.60000   128.67298   180.00000     3.66909   126.09163   180.00000     3.98322
    16.70000   128.10515   180.00000     3.66412   125.54543   180.00000     3.98125
    16.80000   127.53482   180.00000     3.65926   124.99777   180.00000     3.97928
    16.90000   126.96200   180.00000     3.65450   124.44866   180.00000     3.97732
    17.00000   126.32268   180.00000     3.64933   123.83685   180.00000     3.97515
    17.10000   125.74468   180.00000     3.64479   123.28470   180.00000     3.97322
    17.20000   125.09966   180.00000     3.63988   122.66952   180.00000     3.97108
    17.30000   124.45170   180.00000     3.63510   122.05258   180.00000     3.96895
    17.40000   123.80083   180.00000     3.63047   121.43389   180.00000     3.96685
    17.50000   123.14709   180.00000     3.62598   120.81345   180.00000     3.96476
    17.60000   122.42476   180.00000     3.62122   120.12898   180.00000     3.96248
    17.70000   121.76514   180.00000     3.61704   119.50493   180.00000     3.96044
    17.80000   121.03645   180.00000     3.61261   118.81651   180.00000     3.95821
    17.90000   120.30452   180.00000     3.60837   118.12604   180.00000     3.95601
    18.00000   119.50247   180.00000     3.60395   117.37051   180.00000     3.95364
    18.10000   118.76399   180.00000     3.60009   116.67585   180.00000     3.95150
    18.20000   117.95495   180.00000     3.59608   115.91580   180.00000     3.94921
    18.30000   117.14239   180.00000     3.59230   115.15343   180.00000     3.94696
    18.40000   116.25829   180.00000     3.58843   114.32497   180.00000     3.94456
    18.50000   115.37028   180.00000     3.58482   113.49389   180.00000     3.94222
    18.60000   114.40977   180.00000     3.58120   112.59602   180.00000     3.93977
    18.70000   113.44502   180.00000     3.57786   111.69524   180.00000     3.93738
    18.80000   112.47617   180.00000     3.57479   110.79163   180.00000     3.93506
    18.90000   111.36414   180.00000     3.57159   109.75557   180.00000     3.93250
    19.00000   110.24716   180.00000     3.56872   108.71605   180.00000     3.93005
    19.10000   109.05523   180.00000     3.56601   107.60791   180.00000     3.92755
    19.20000   107.78768   180.00000     3.56349   106.43068   180.00000     3.92505
    19.30000   106.44390   180.00000     3.56121   105.18392   180.00000     3.92257
    19.40000   104.88099   180.00000     3.55899   103.73535   180.00000     3.91991
    19.50000   103.23963   180.00000     3.55712   102.21569   180.00000     3.91738
    19.60000   101.30409   180.00000     3.55542   100.42562   180.00000     3.91476
    19.70000    98.92728   180.00000     3.55394    98.23001   180.00000     3.91209
    19.80000    95.59786   180.00000     3.55270    95.15832   180.00000     3.90939
    19.90000    90.00000   180.00000     3.55206    90.00000   180.00000     3.90763
    20.00000    90.00000   180.00000     3.55210    90.00000   180.00000     3.90763
    20.10000    90.00000   180.00000     3.55214    90.00000   180.00000     3.90762
    20.20000    90.00000   180.00000     3.55218    90.00000   180.00000     3.90762
    20.30000    90.00000   180.00000     3.55223    90.00000   180.00000     3.90762
    20.40000    90.00000   180.00000     3.55227    90.00000   180.00000     3.90762
    20.50000    90.00000   180.00000     3.55231    90.00000   180.00000     3.90761
    20.60000    90.00000   180.00000     3.55235    90.00000   180.00000     3.90761
    20.70000    90.00000   180.00000     3.55240    90.00000   180.00000     3.90761
    20.80000    90.00000   180.00000     3.55244    90.00000   180.00000     3.90760
    20.90000    90.00000   180.00000     3.55248    90.00000   180.00000     3.90760
    21.00000    90.00000   180.00000     3.55252    90.00000   180.00000     3.90760
    21.10000    90.00000   180.00000     3.55256    90.00000   180.00000     3.90760
    21.20000    90.00000   180.00000     3.55261    90.00000   180.00000     3.90759
    21.30000    90.00000   180.00000     3.55265    90.00000   180.00000     3.90759
    21.40000    90.00000   180.00000     3.55269    90.00000   180.00000     3.90759
    21.50000    90.00000   180.00000     3.55273    90.00000   180.00000     3.90758
    21.60000    90.00000   180.00000     3.55277    90.00000   180.00000     3.90758
    21.70000    90.00000   180.00000     3.55282    90.00000   180.00000     3.90758
    21.80000    90.00000   180.00000     3.55286    90.00000   180.00000     3.90758
    21.90000    90.00000   180.00000     3.55290    90.00000   180.00000     3.90757
    22.00000    90.00000   180.00000     3.55294    90.00000   180.00000     3.90757
    22.10000    90.00000   180.00000     3.55298    90.00000   180.00000     3.90757
    22.20000    90.00000   180.00000     3.55302    90.00000   180.00000     3.90756
    22.30000    90.00000   180.00000     3.55307    90.00000   180.00000     3.90756
    22.40000    90.00000   180.00000     3.55311    90.00000   180.00000     3.90756
    22.50000    90.00000   180.00000     3.55315    90.00000   180.00000     3.90755
    22.60000    90.00000   180.00000     3.55319    90.00000   180.00000     3.90755
    22.70000    90.00000   180.00000     3.55323    90.00000   180.00000     3.90755
    22.80000    90.00000   180.00000     3.55327    90.00000   180.00000     3.90754
    22.90000    90.00000   180.00000     3.55332    90.00000   180.00000     3.90754
    23.00000    90.00000   180.00000     3.55336    90.00000   180.00000     3.90754
    23.10000    90.00000   180.00000     3.55340    90.00000   180.00000     3.90753
    23.20000    90.00000   180.00000     3.55344    90.00000   180.00000     3.90753
    23.30000    90.00000   180.00000     3.55348    90.00000   180.00000     3.90753
