 # applied field (T), theta (degree), phi (degree), abs for RE 3-4
     0.00000   179.91888   315.00000     3.94474   179.91888   225.00000     3.94474
     0.10000   179.30680   183.37358     3.94717   179.18884   185.30611     3.94455
     0.20000   178.50476   180.88961     3.94970   178.38535   183.34227     3.94428
     0.30000   177.75518   180.17745     3.95199   177.63451   182.71852     3.94398
     0.40000   176.95153   179.80600     3.95437   176.82941   182.38178     3.94358
     0.50000   176.14738   179.59160     3.95666   176.02371   182.18461     3.94313
     0.60000   175.39636   179.46043     3.95872   175.27115   182.06372     3.94265
     0.70000   174.59111   179.36154     3.96083   174.46413   181.97288     3.94208
     0.80000   173.78520   179.28922     3.96284   173.65635   181.90722     3.94146
     0.90000   173.03236   179.23744     3.96462   172.90167   181.86116     3.94082
     1.00000   172.22496   179.19369     3.96642   172.09220   181.82316     3.94009
     1.10000   171.41671   179.15862     3.96810   171.28175   181.79375     3.93930
     1.20000   170.60753   179.12993     3.96966   170.47028   181.77076     3.93846
     1.30000   169.74332   179.10462     3.97119   169.60349   181.75160     3.93751
     1.40000   168.93206   179.08464     3.97249   168.78969   181.73761     3.93657
     1.50000   168.06550   179.06647     3.97372   167.92029   181.72596     3.93552
     1.60000   167.25193   179.05172     3.97474   167.10393   181.71758     3.93449
     1.70000   166.38281   179.03796     3.97566   166.23169   181.71078     3.93335
     1.80000   165.45781   179.02514     3.97646   165.30321   181.70555     3.93209
     1.90000   164.58573   179.01439     3.97703   164.42771   181.70220     3.93086
     2.00000   163.71214   179.00470     3.97742   163.55055   181.70012     3.92960
     2.10000   162.78224   178.99536     3.97764   162.61671   181.69904     3.92822
     2.20000   161.79568   178.98635     3.97764   161.62580   181.69895     3.92671
     2.30000   160.86202   178.97849     3.97742   160.68790   181.69974     3.92526
     2.40000   159.87138   178.97075     3.97695   159.69260   181.70132     3.92370
     2.50000   158.87856   178.96350     3.97623   158.69501   181.70353     3.92211
     2.60000   157.82817   178.95627     3.97519   157.63948   181.70644     3.92041
     2.70000   156.77526   178.94940     3.97387   156.58134   181.70983     3.91869
     2.80000   155.66414   178.94248     3.97217   155.46469   181.71381     3.91686
     2.90000   154.55011   178.93581     3.97016   154.34516   181.71813     3.91503
     3.00000   153.32124   178.92870     3.96757   153.11036   181.72315     3.91300
     3.10000   152.14482   178.92208     3.96475   151.92848   181.72817     3.91107
     3.20000   150.85248   178.91497     3.96127   150.63050   181.73380     3.90897
     3.30000   149.49953   178.90764     3.95720   149.27221   181.73974     3.90680
     3.40000   148.08534   178.90006     3.95253   147.85325   181.74593     3.90457
     3.50000   146.60924   178.89217     3.94720   146.37324   181.75227     3.90229
     3.60000   145.01340   178.88361     3.94099   144.77471   181.75891     3.89989
     3.70000   143.29636   178.87429     3.93383   143.05689   181.76571     3.89740
     3.80000   141.39895   178.86377     3.92543   141.16156   181.77269     3.89477
     3.90000   139.37658   178.85217     3.91607   139.14531   181.77943     3.89211
     4.00000   137.05285   178.83820     3.90496   136.83414   181.78614     3.88925
     4.10000   134.42312   178.82133     3.89225   134.22634   181.79225     3.88627
     4.20000   131.24686   178.79913     3.87721   131.08786   181.79737     3.88304
     4.30000   127.21837   178.76764     3.85954   127.12448   181.80002     3.87949
     4.40000   121.30833   178.71425     3.83858   121.33841   181.79576     3.87523
     4.50000    89.72158   178.38974     3.86087    90.27842   181.61026     3.86087
     4.60000    89.72157   178.38972     3.86087    90.27843   181.61028     3.86087
     4.70000    89.72156   178.38970     3.86086    90.27844   181.61030     3.86086
     4.80000    89.72155   178.38968     3.86086    90.27845   181.61032     3.86086
     4.90000    89.72154   178.38966     3.86086    90.27846   181.61034     3.86086
     5.00000    89.72153   178.38964     3.86086    90.27847   181.61036     3.86086
     5.10000    89.72152   178.38962     3.86086    90.27848   181.61038     3.86086
     5.20000    89.72151   178.38960     3.86086    90.27849   181.61040     3.86086
     5.30000    89.72150   178.38958     3.86086    90.27850   181.61042     3.86086
     5.40000    89.72149   178.38956     3.86086    90.27851   181.61044     3.86086
     5.50000    89.72148   178.38954     3.86086    90.27852   181.61046     3.86086
     5.60000    89.72147   178.38952     3.86086    90.27853   181.61048     3.86086
     5.70000    89.72146   178.38950     3.86086    90.27854   181.61050     3.86086
     5.80000    89.72145   178.38948     3.86086    90.27855   181.61052     3.86086
     5.90000    89.72144   178.38946     3.86086    90.27856   181.61054     3.86086
     6.00000    89.72143   178.38945     3.86086    90.27857   181.61055     3.86086
     6.10000    89.72142   178.38943     3.86085    90.27858   181.61057     3.86085
     6.20000    89.72141   178.38941     3.86085    90.27859   181.61059     3.86085
     6.30000    89.72140   178.38939     3.86085    90.27860   181.61061     3.86085
     6.40000    89.72139   178.38937     3.86085    90.27861   181.61063     3.86085
     6.50000    89.72138   178.38935     3.86085    90.27862   181.61065     3.86085
     6.60000    89.72137   178.38933     3.86085    90.27863   181.61067     3.86085
     6.70000    89.72136   178.38931     3.86085    90.27864   181.61069     3.86085
     6.80000    89.72135   178.38929     3.86085    90.27865   181.61071     3.86085
     6.90000    89.72134   178.38927     3.86085    90.27866   181.61073     3.86085
     7.00000    89.72134   178.38925     3.86085    90.27866   181.61075     3.86085
     7.10000    89.72133   178.38923     3.86085    90.27867   181.61077     3.86085
     7.20000    89.72132   178.38921     3.86084    90.27868   181.61079     3.86084
     7.30000    89.72131   178.38919     3.86084    90.27869   181.61081     3.86084
     7.40000    89.72130   178.38917     3.86084    90.27870   181.61083     3.86084
     7.50000    89.72129   178.38915     3.86084    90.27871   181.61085     3.86084
     7.60000    89.72128   178.38913     3.86084    90.27872   181.61087     3.86084
     7.70000    89.72127   178.38911     3.86084    90.27873   181.61089     3.86084
     7.80000    89.72126   178.38909     3.86084    90.27874   181.61091     3.86084
     7.90000    89.72125   178.38907     3.86084    90.27875   181.61093     3.86084
     8.00000    89.72124   178.38905     3.86084    90.27876   181.61095     3.86084
     8.10000    89.72123   178.38903     3.86083    90.27877   181.61097     3.86083
     8.20000    89.72122   178.38901     3.86083    90.27878   181.61099     3.86083
     8.30000    89.72121   178.38899     3.86083    90.27879   181.61101     3.86083
     8.40000    89.72120   178.38897     3.86083    90.27880   181.61103     3.86083
     8.50000    89.72119   178.38895     3.86083    90.27881   181.61105     3.86083
     8.60000    89.72118   178.38893     3.86083    90.27882   181.61107     3.86083
     8.70000    89.72117   178.38891     3.86083    90.27883   181.61109     3.86083
     8.80000    89.72116   178.38889     3.86083    90.27884   181.61111     3.86083
     8.90000    89.72115   178.38887     3.86082    90.27885   181.61113     3.86082
     9.00000    89.72114   178.38885     3.86082    90.27886   181.61115     3.86082
     9.10000    89.72113   178.38883     3.86082    90.27887   181.61117     3.86082
     9.20000    89.72112   178.38881     3.86082    90.27888   181.61119     3.86082
     9.30000    89.72111   178.38879     3.86082    90.27889   181.61121     3.86082
     9.40000    89.72110   178.38877     3.86082    90.27890   181.61123     3.86082
     9.50000    89.72109   178.38875     3.86082    90.27891   181.61125     3.86082
     9.60000    89.72108   178.38873     3.86081    90.27892   181.61127     3.86081
     9.70000    89.72107   178.38871     3.86081    90.27893   181.61129     3.86081
     9.80000    89.72106   178.38869     3.86081    90.27894   181.61131     3.86081
     9.90000    89.72105   178.38867     3.86081    90.27895   181.61133     3.86081
    10.00000    89.72104   178.38865     3.86081    90.27896   181.61135     3.86081
    10.10000    89.72104   178.38863     3.86081    90.27896   181.61137     3.86081
    10.20000    89.72103   178.38861     3.86081    90.27897   181.61139     3.86081
    10.30000    89.72102   178.38859     3.86080    90.27898   181.61141     3.86080
    10.40000    89.72101   178.38857     3.86080    90.27899   181.61143     3.86080
    10.50000    89.72100   178.38855     3.86080    90.27900   181.61145     3.86080
    10.60000    89.72099   178.38853     3.86080    90.27901   181.61147     3.86080
    10.70000    89.72098   178.38851     3.86080    90.27902   181.61149     3.86080
    10.80000    89.72097   178.38849     3.86080    90.27903   181.61151     3.86080
    10.90000    89.72096   178.38847     3.86079    90.27904   181.61153     3.86079
    11.00000    89.72095   178.38845     3.86079    90.27905   181.61155     3.86079
    11.10000    89.72094   178.38843     3.86079    90.27906   181.61157     3.86079
    11.20000    89.72093   178.38841     3.86079    90.27907   181.61159     3.86079
    11.30000    89.72092   178.38839     3.86079    90.27908   181.61161     3.86079
    11.40000    89.72091   178.38837     3.86078    90.27909   181.61163     3.86078
    11.50000    89.72090   178.38835     3.86078    90.27910   181.61165     3.86078
    11.60000    89.72089   178.38833     3.86078    90.27911   181.61167     3.86078
    11.70000    89.72088   178.38831     3.86078    90.27912   181.61169     3.86078
    11.80000    89.72087   178.38829     3.86078    90.27913   181.61171     3.86078
    11.90000    89.72086   178.38827     3.86078    90.27914   181.61173     3.86078
    12.00000    89.72085   178.38825     3.86077    90.27915   181.61175     3.86077
    12.10000    89.72084   178.38823     3.86077    90.27916   181.61177     3.86077
    12.20000    89.72083   178.38821     3.86077    90.27917   181.61179     3.86077
    12.30000    89.72082   178.38819     3.86077    90.27918   181.61181     3.86077
    12.40000    89.72081   178.38817     3.86077    90.27919   181.61183     3.86077
    12.50000    89.72080   178.38815     3.86076    90.27920   181.61185     3.86076
    12.60000    89.72079   178.38813     3.86076    90.27921   181.61187     3.86076
    12.70000    89.72078   178.38811     3.86076    90.27922   181.61189     3.86076
    12.80000    89.72077   178.38809     3.86076    90.27923   181.61191     3.86076
    12.90000    89.72076   178.38807     3.86075    90.27924   181.61193     3.86075
    13.00000    89.72075   178.38805     3.86075    90.27925   181.61195     3.86075
    13.10000    89.72074   178.38803     3.86075    90.27926   181.61197     3.86075
    13.20000    89.72074   178.38801     3.86075    90.27926   181.61199     3.86075
    13.30000    89.72073   178.38799     3.86075    90.27927   181.61201     3.86075
    13.40000    89.72072   178.38797     3.86074    90.27928   181.61203     3.86074
    13.50000    89.72071   178.38795     3.86074    90.27929   181.61205     3.86074
    13.60000    89.72070   178.38793     3.86074    90.27930   181.61207     3.86074
    13.70000    89.72069   178.38791     3.86074    90.27931   181.61209     3.86074
    13.80000    89.72068   178.38789     3.86074    90.27932   181.61211     3.86074
    13.90000    89.72067   178.38787     3.86073    90.27933   181.61213     3.86073
    14.00000    89.72066   178.38785     3.86073    90.27934   181.61215     3.86073
    14.10000    89.72065   178.38783     3.86073    90.27935   181.61217     3.86073
    14.20000    89.72064   178.38781     3.86073    90.27936   181.61219     3.86073
    14.30000    89.72063   178.38779     3.86072    90.27937   181.61221     3.86072
    14.40000    89.72062   178.38777     3.86072    90.27938   181.61223     3.86072
    14.50000    89.72061   178.38775     3.86072    90.27939   181.61225     3.86072
    14.60000    89.72060   178.38773     3.86072    90.27940   181.61227     3.86072
    14.70000    89.72059   178.38771     3.86071    90.27941   181.61229     3.86071
    14.80000    89.72058   178.38769     3.86071    90.27942   181.61231     3.86071
    14.90000    89.72057   178.38767     3.86071    90.27943   181.61233     3.86071
    15.00000    89.72056   178.38765     3.86071    90.27944   181.61235     3.86071
    15.10000    89.72055   178.38763     3.86070    90.27945   181.61237     3.86070
    15.20000    89.72054   178.38761     3.86070    90.27946   181.61239     3.86070
    15.30000    89.72053   178.38759     3.86070    90.27947   181.61241     3.86070
    15.40000    89.72052   178.38757     3.86070    90.27948   181.61243     3.86070
    15.50000    89.72051   178.38755     3.86069    90.27949   181.61245     3.86069
    15.60000    89.72050   178.38753     3.86069    90.27950   181.61247     3.86069
    15.70000    89.72049   178.38751     3.86069    90.27951   181.61249     3.86069
    15.80000    89.72048   178.38749     3.86069    90.27952   181.61251     3.86069
    15.90000    89.72047   178.38747     3.86068    90.27953   181.61253     3.86068
    16.00000    89.72046   178.38744     3.86068    90.27954   181.61256     3.86068
    16.10000    89.72045   178.38742     3.86068    90.27955   181.61258     3.86068
    16.20000    89.72045   178.38740     3.86068    90.27955   181.61260     3.86068
    16.30000    89.72044   178.38738     3.86067    90.27956   181.61262     3.86067
    16.40000    89.72043   178.38736     3.86067    90.27957   181.61264     3.86067
    16.50000    89.72042   178.38734     3.86067    90.27958   181.61266     3.86067
    16.60000    89.72041   178.38732     3.86066    90.27959   181.61268     3.86066
    16.70000    89.72040   178.38730     3.86066    90.27960   181.61270     3.86066
    16.80000    89.72039   178.38728     3.86066    90.27961   181.61272     3.86066
    16.90000    89.72038   178.38726     3.86066    90.27962   181.61274     3.86066
    17.00000    89.72037   178.38724     3.86065    90.27963   181.61276     3.86065
    17.10000    89.72036   178.38722     3.86065    90.27964   181.61278     3.86065
    17.20000    89.72035   178.38720     3.86065    90.27965   181.61280     3.86065
    17.30000    89.72034   178.38718     3.86064    90.27966   181.61282     3.86064
    17.40000    89.72033   178.38716     3.86064    90.27967   181.61284     3.86064
    17.50000    89.72032   178.38714     3.86064    90.27968   181.61286     3.86064
    17.60000    89.72031   178.38712     3.86064    90.27969   181.61288     3.86064
    17.70000    89.72030   178.38710     3.86063    90.27970   181.61290     3.86063
    17.80000    89.72029   178.38708     3.86063    90.27971   181.61292     3.86063
    17.90000    89.72028   178.38706     3.86063    90.27972   181.61294     3.86063
    18.00000    89.72027   178.38704     3.86062    90.27973   181.61296     3.86062
    18.10000    89.72026   178.38702     3.86062    90.27974   181.61298     3.86062
    18.20000    89.72025   178.38700     3.86062    90.27975   181.61300     3.86062
    18.30000    89.72024   178.38697     3.86061    90.27976   181.61303     3.86061
    18.40000    89.72023   178.38695     3.86061    90.27977   181.61305     3.86061
    18.50000    89.72022   178.38693     3.86061    90.27978   181.61307     3.86061
    18.60000    89.72021   178.38691     3.86060    90.27979   181.61309     3.86060
    18.70000    89.72020   178.38689     3.86060    90.27980   181.61311     3.86060
    18.80000    89.72019   178.38687     3.86060    90.27981   181.61313     3.86060
    18.90000    89.72018   178.38685     3.86059    90.27982   181.61315     3.86059
    19.00000    89.72017   178.38683     3.86059    90.27983   181.61317     3.86059
    19.10000    89.72017   178.38681     3.86059    90.27983   181.61319     3.86059
    19.20000    89.72016   178.38679     3.86058    90.27984   181.61321     3.86058
    19.30000    89.72015   178.38677     3.86058    90.27985   181.61323     3.86058
    19.40000    89.72014   178.38675     3.86058    90.27986   181.61325     3.86058
    19.50000    89.72013   178.38673     3.86057    90.27987   181.61327     3.86057
    19.60000    89.72012   178.38671     3.86057    90.27988   181.61329     3.86057
    19.70000    89.72011   178.38669     3.86057    90.27989   181.61331     3.86057
    19.80000    89.72010   178.38667     3.86056    90.27990   181.61333     3.86056
    19.90000    89.72009   178.38665     3.86056    90.27991   181.61335     3.86056
    20.00000    89.72008   178.38662     3.86056    90.27992   181.61338     3.86056
    20.10000    89.72007   178.38660     3.86055    90.27993   181.61340     3.86055
    20.20000    89.72006   178.38658     3.86055    90.27994   181.61342     3.86055
    20.30000    89.72005   178.38656     3.86055    90.27995   181.61344     3.86055
    20.40000    89.72004   178.38654     3.86054    90.27996   181.61346     3.86054
    20.50000    89.72003   178.38652     3.86054    90.27997   181.61348     3.86054
    20.60000    89.72002   178.38650     3.86054    90.27998   181.61350     3.86054
    20.70000    89.72001   178.38648     3.86053    90.27999   181.61352     3.86053
    20.80000    89.72000   178.38646     3.86053    90.28000   181.61354     3.86053
    20.90000    89.71999   178.38644     3.86053    90.28001   181.61356     3.86053
    21.00000    89.71998   178.38642     3.86052    90.28002   181.61358     3.86052
    21.10000    89.71997   178.38640     3.86052    90.28003   181.61360     3.86052
    21.20000    89.71996   178.38638     3.86052    90.28004   181.61362     3.86052
    21.30000    89.71995   178.38636     3.86051    90.28005   181.61364     3.86051
    21.40000    89.71994   178.38633     3.86051    90.28006   181.61367     3.86051
    21.50000    89.71993   178.38631     3.86050    90.28007   181.61369     3.86050
    21.60000    89.71992   178.38629     3.86050    90.28008   181.61371     3.86050
    21.70000    89.71991   178.38627     3.86050    90.28009   181.61373     3.86050
    21.80000    89.71990   178.38625     3.86049    90.28010   181.61375     3.86049
    21.90000    89.71989   178.38623     3.86049    90.28011   181.61377     3.86049
    22.00000    89.71989   178.38621     3.86049    90.28011   181.61379     3.86049
    22.10000    89.71988   178.38619     3.86048    90.28012   181.61381     3.86048
    22.20000    89.71987   178.38617     3.86048    90.28013   181.61383     3.86048
    22.30000    89.71986   178.38615     3.86047    90.28014   181.61385     3.86047
    22.40000    89.71985   178.38613     3.86047    90.28015   181.61387     3.86047
    22.50000    89.71984   178.38611     3.86047    90.28016   181.61389     3.86047
    22.60000    89.71983   178.38608     3.86046    90.28017   181.61392     3.86046
    22.70000    89.71982   178.38606     3.86046    90.28018   181.61394     3.86046
    22.80000    89.71981   178.38604     3.86045    90.28019   181.61396     3.86045
    22.90000    89.71980   178.38602     3.86045    90.28020   181.61398     3.86045
    23.00000    89.71979   178.38600     3.86045    90.28021   181.61400     3.86045
    23.10000    89.71978   178.38598     3.86044    90.28022   181.61402     3.86044
    23.20000    89.71977   178.38596     3.86044    90.28023   181.61404     3.86044
    23.30000    89.71976   178.38594     3.86043    90.28024   181.61406     3.86043
