 # applied field (T), theta (degree), phi (degree), abs for RE 3-4
     0.00000   179.84196   315.00000     3.56429   179.84196   225.00000     3.56429
     0.10000   178.81491   232.73283     3.56612   178.61602   225.00000     3.56424
     0.20000   177.64532   228.91832     3.56778   177.38958   225.00000     3.56412
     0.30000   176.47151   227.63740     3.56925   176.16249   225.00000     3.56392
     0.40000   175.29592   226.99572     3.57052   174.93462   225.00000     3.56366
     0.50000   174.11893   226.61020     3.57155   173.70587   225.00000     3.56332
     0.60000   172.94058   226.35275     3.57234   172.47611   225.00000     3.56292
     0.70000   171.70711   226.16125     3.57287   171.18924   225.00000     3.56244
     0.80000   170.52577   226.02418     3.57309   169.95712   225.00000     3.56192
     0.90000   169.28899   225.91258     3.57299   168.66761   225.00000     3.56132
     1.00000   168.05039   225.82343     3.57253   167.37661   225.00000     3.56068
     1.10000   166.75585   225.74750     3.57164   166.02781   225.00000     3.55996
     1.20000   165.51322   225.68679     3.57038   164.73360   225.00000     3.55924
     1.30000   164.16010   225.63086     3.56852   163.32495   225.00000     3.55841
     1.40000   162.85871   225.58476     3.56623   161.97081   225.00000     3.55760
     1.50000   161.50044   225.54289     3.56331   160.55828   225.00000     3.55673
     1.60000   160.08487   225.50461     3.55966   159.08713   225.00000     3.55581
     1.70000   158.66616   225.47064     3.55537   157.61387   225.00000     3.55488
     1.80000   157.18942   225.43903     3.55022   156.08174   225.00000     3.55392
     1.90000   155.65406   225.40947     3.54412   154.49058   225.00000     3.55294
     2.00000   154.05947   225.38170     3.53698   152.84023   225.00000     3.55195
     2.10000   152.40491   225.35550     3.52872   151.13062   225.00000     3.55095
     2.20000   150.68958   225.33069     3.51928   149.36168   225.00000     3.54997
     2.30000   148.85691   225.30643     3.50825   147.47625   225.00000     3.54897
     2.40000   146.96105   225.28341     3.49590   145.53145   225.00000     3.54802
     2.50000   144.94466   225.26095     3.48183   143.47015   225.00000     3.54710
     2.60000   142.74910   225.23858     3.46562   141.23510   225.00000     3.54621
     2.70000   140.42777   225.21702     3.44769   138.88382   225.00000     3.54539
     2.80000   137.80646   225.19500     3.42684   136.24454   225.00000     3.54460
     2.90000   134.93631   225.17341     3.40376   133.37518   225.00000     3.54391
     3.00000   131.63746   225.15152     3.37759   130.10449   225.00000     3.54329
     3.10000   127.78274   225.12936     3.34843   126.31922   225.00000     3.54273
     3.20000   123.00423   225.10617     3.31577   121.67783   225.00000     3.54215
     3.30000   116.56312   225.08051     3.27998   115.49694   225.00000     3.54127
     3.40000   105.58095   225.04535     3.24481   105.08936   225.00000     3.53851
     3.50000    90.00000   225.00000     3.25256    90.39178   225.00000     3.53063
     3.60000    90.00000   225.00000     3.25257    90.39183   225.00000     3.53063
     3.70000    90.00000   225.00000     3.25259    90.39187   225.00000     3.53062
     3.80000    90.00000   225.00000     3.25260    90.39191   225.00000     3.53061
     3.90000    90.00000   225.00000     3.25262    90.39195   225.00000     3.53061
     4.00000    90.00000   225.00000     3.25263    90.39200   225.00000     3.53060
     4.10000    90.00000   225.00000     3.25265    90.39204   225.00000     3.53059
     4.20000    90.00000   225.00000     3.25267    90.39208   225.00000     3.53058
     4.30000    90.00000   225.00000     3.25268    90.39212   225.00000     3.53058
     4.40000    90.00000   225.00000     3.25270    90.39216   225.00000     3.53057
     4.50000    90.00000   225.00000     3.25271    90.39221   225.00000     3.53056
     4.60000    90.00000   225.00000     3.25273    90.39225   225.00000     3.53055
     4.70000    90.00000   225.00000     3.25274    90.39229   225.00000     3.53055
     4.80000    90.00000   225.00000     3.25276    90.39233   225.00000     3.53054
     4.90000    90.00000   225.00000     3.25278    90.39238   225.00000     3.53053
     5.00000    90.00000   225.00000     3.25279    90.39242   225.00000     3.53053
     5.10000    90.00000   225.00000     3.25281    90.39246   225.00000     3.53052
     5.20000    90.00000   225.00000     3.25282    90.39250   225.00000     3.53051
     5.30000    90.00000   225.00000     3.25284    90.39254   225.00000     3.53050
     5.40000    90.00000   225.00000     3.25285    90.39259   225.00000     3.53050
     5.50000    90.00000   225.00000     3.25287    90.39263   225.00000     3.53049
     5.60000    90.00000   225.00000     3.25288    90.39267   225.00000     3.53048
     5.70000    90.00000   225.00000     3.25290    90.39271   225.00000     3.53047
     5.80000    90.00000   225.00000     3.25291    90.39275   225.00000     3.53047
     5.90000    90.00000   225.00000     3.25293    90.39280   225.00000     3.53046
     6.00000    90.00000   225.00000     3.25295    90.39284   225.00000     3.53045
     6.10000    90.00000   225.00000     3.25296    90.39288   225.00000     3.53044
     6.20000    90.00000   225.00000     3.25298    90.39292   225.00000     3.53044
     6.30000    90.00000   225.00000     3.25299    90.39297   225.00000     3.53043
     6.40000    90.00000   225.00000     3.25301    90.39301   225.00000     3.53042
     6.50000    90.00000   225.00000     3.25302    90.39305   225.00000     3.53041
     6.60000    90.00000   225.00000     3.25304    90.39309   225.00000     3.53041
     6.70000    90.00000   225.00000     3.25305    90.39313   225.00000     3.53040
     6.80000    90.00000   225.00000     3.25307    90.39318   225.00000     3.53039
     6.90000    90.00000   225.00000     3.25308    90.39322   225.00000     3.53038
     7.00000    90.00000   225.00000     3.25310    90.39326   225.00000     3.53038
     7.10000    90.00000   225.00000     3.25311    90.39330   225.00000     3.53037
     7.20000    90.00000   225.00000     3.25313    90.39334   225.00000     3.53036
     7.30000    90.00000   225.00000     3.25314    90.39339   225.00000     3.53035
     7.40000    90.00000   225.00000     3.25316    90.39343   225.00000     3.53034
     7.50000    90.00000   225.00000     3.25317    90.39347   225.00000     3.53034
     7.60000    90.00000   225.00000     3.25319    90.39351   225.00000     3.53033
     7.70000    90.00000   225.00000     3.25320    90.39356   225.00000     3.53032
     7.80000    90.00000   225.00000     3.25322    90.39360   225.00000     3.53031
     7.90000    90.00000   225.00000     3.25323    90.39364   225.00000     3.53030
     8.00000    90.00000   225.00000     3.25325    90.39368   225.00000     3.53030
     8.10000    90.00000   225.00000     3.25326    90.39372   225.00000     3.53029
     8.20000    90.00000   225.00000     3.25328    90.39377   225.00000     3.53028
     8.30000    90.00000   225.00000     3.25329    90.39381   225.00000     3.53027
     8.40000    90.00000   225.00000     3.25331    90.39385   225.00000     3.53026
     8.50000    90.00000   225.00000     3.25332    90.39389   225.00000     3.53026
     8.60000    90.00000   225.00000     3.25334    90.39393   225.00000     3.53025
     8.70000    90.00000   225.00000     3.25335    90.39398   225.00000     3.53024
     8.80000    90.00000   225.00000     3.25336    90.39402   225.00000     3.53023
     8.90000    90.00000   225.00000     3.25338    90.39406   225.00000     3.53022
     9.00000    90.00000   225.00000     3.25339    90.39410   225.00000     3.53022
     9.10000    90.00000   225.00000     3.25341    90.39414   225.00000     3.53021
     9.20000    90.00000   225.00000     3.25342    90.39419   225.00000     3.53020
     9.30000    90.00000   225.00000     3.25344    90.39423   225.00000     3.53019
     9.40000    90.00000   225.00000     3.25345    90.39427   225.00000     3.53018
     9.50000    90.00000   225.00000     3.25347    90.39431   225.00000     3.53018
     9.60000    90.00000   225.00000     3.25348    90.39435   225.00000     3.53017
     9.70000    90.00000   225.00000     3.25350    90.39440   225.00000     3.53016
     9.80000    90.00000   225.00000     3.25351    90.39444   225.00000     3.53015
     9.90000    90.00000   225.00000     3.25352    90.39448   225.00000     3.53014
    10.00000    90.00000   225.00000     3.25354    90.39452   225.00000     3.53013
    10.10000    90.00000   225.00000     3.25355    90.39457   225.00000     3.53013
    10.20000    90.00000   225.00000     3.25357    90.39461   225.00000     3.53012
    10.30000    90.00000   225.00000     3.25358    90.39465   225.00000     3.53011
    10.40000    90.00000   225.00000     3.25360    90.39469   225.00000     3.53010
    10.50000    90.00000   225.00000     3.25361    90.39473   225.00000     3.53009
    10.60000    90.00000   225.00000     3.25362    90.39478   225.00000     3.53008
    10.70000    90.00000   225.00000     3.25364    90.39482   225.00000     3.53008
    10.80000    90.00000   225.00000     3.25365    90.39486   225.00000     3.53007
    10.90000    90.00000   225.00000     3.25367    90.39490   225.00000     3.53006
    11.00000    90.00000   225.00000     3.25368    90.39494   225.00000     3.53005
    11.10000    90.00000   225.00000     3.25370    90.39499   225.00000     3.53004
    11.20000    90.00000   225.00000     3.25371    90.39503   225.00000     3.53003
    11.30000    90.00000   225.00000     3.25372    90.39507   225.00000     3.53002
    11.40000    90.00000   225.00000     3.25374    90.39511   225.00000     3.53002
    11.50000    90.00000   225.00000     3.25375    90.39515   225.00000     3.53001
    11.60000    90.00000   225.00000     3.25377    90.39520   225.00000     3.53000
    11.70000    90.00000   225.00000     3.25378    90.39524   225.00000     3.52999
    11.80000    90.00000   225.00000     3.25379    90.39528   225.00000     3.52998
    11.90000    90.00000   225.00000     3.25381    90.39532   225.00000     3.52997
    12.00000    90.00000   225.00000     3.25382    90.39536   225.00000     3.52996
    12.10000    90.00000   225.00000     3.25383    90.39541   225.00000     3.52995
    12.20000    90.00000   225.00000     3.25385    90.39545   225.00000     3.52995
    12.30000    90.00000   225.00000     3.25386    90.39549   225.00000     3.52994
    12.40000    90.00000   225.00000     3.25388    90.39553   225.00000     3.52993
    12.50000    90.00000   225.00000     3.25389    90.39557   225.00000     3.52992
    12.60000    90.00000   225.00000     3.25390    90.39562   225.00000     3.52991
    12.70000    90.00000   225.00000     3.25392    90.39566   225.00000     3.52990
    12.80000    90.00000   225.00000     3.25393    90.39570   225.00000     3.52989
    12.90000    90.00000   225.00000     3.25394    90.39574   225.00000     3.52988
    13.00000    90.00000   225.00000     3.25396    90.39578   225.00000     3.52988
    13.10000    90.00000   225.00000     3.25397    90.39583   225.00000     3.52987
    13.20000    90.00000   225.00000     3.25399    90.39587   225.00000     3.52986
    13.30000    90.00000   225.00000     3.25400    90.39591   225.00000     3.52985
    13.40000    90.00000   225.00000     3.25401    90.39595   225.00000     3.52984
    13.50000    90.00000   225.00000     3.25403    90.39599   225.00000     3.52983
    13.60000    90.00000   225.00000     3.25404    90.39604   225.00000     3.52982
    13.70000    90.00000   225.00000     3.25405    90.39608   225.00000     3.52981
    13.80000    90.00000   225.00000     3.25407    90.39612   225.00000     3.52980
    13.90000    90.00000   225.00000     3.25408    90.39616   225.00000     3.52979
    14.00000    90.00000   225.00000     3.25409    90.39620   225.00000     3.52978
    14.10000    90.00000   225.00000     3.25411    90.39624   225.00000     3.52978
    14.20000    90.00000   225.00000     3.25412    90.39629   225.00000     3.52977
    14.30000    90.00000   225.00000     3.25413    90.39633   225.00000     3.52976
    14.40000    90.00000   225.00000     3.25415    90.39637   225.00000     3.52975
    14.50000    90.00000   225.00000     3.25416    90.39641   225.00000     3.52974
    14.60000    90.00000   225.00000     3.25417    90.39645   225.00000     3.52973
    14.70000    90.00000   225.00000     3.25419    90.39650   225.00000     3.52972
    14.80000    90.00000   225.00000     3.25420    90.39654   225.00000     3.52971
    14.90000    90.00000   225.00000     3.25421    90.39658   225.00000     3.52970
    15.00000    90.00000   225.00000     3.25423    90.39662   225.00000     3.52969
    15.10000    90.00000   225.00000     3.25424    90.39666   225.00000     3.52968
    15.20000    90.00000   225.00000     3.25425    90.39671   225.00000     3.52967
    15.30000    90.00000   225.00000     3.25427    90.39675   225.00000     3.52966
    15.40000    90.00000   225.00000     3.25428    90.39679   225.00000     3.52965
    15.50000    90.00000   225.00000     3.25429    90.39683   225.00000     3.52965
    15.60000    90.00000   225.00000     3.25431    90.39687   225.00000     3.52964
    15.70000    90.00000   225.00000     3.25432    90.39692   225.00000     3.52963
    15.80000    90.00000   225.00000     3.25433    90.39696   225.00000     3.52962
    15.90000    90.00000   225.00000     3.25434    90.39700   225.00000     3.52961
    16.00000    90.00000   225.00000     3.25436    90.39704   225.00000     3.52960
    16.10000    90.00000   225.00000     3.25437    90.39708   225.00000     3.52959
    16.20000    90.00000   225.00000     3.25438    90.39713   225.00000     3.52958
    16.30000    90.00000   225.00000     3.25440    90.39717   225.00000     3.52957
    16.40000    90.00000   225.00000     3.25441    90.39721   225.00000     3.52956
    16.50000    90.00000   225.00000     3.25442    90.39725   225.00000     3.52955
    16.60000    90.00000   225.00000     3.25444    90.39729   225.00000     3.52954
    16.70000    90.00000   225.00000     3.25445    90.39733   225.00000     3.52953
    16.80000    90.00000   225.00000     3.25446    90.39738   225.00000     3.52952
    16.90000    90.00000   225.00000     3.25447    90.39742   225.00000     3.52951
    17.00000    90.00000   225.00000     3.25449    90.39746   225.00000     3.52950
    17.10000    90.00000   225.00000     3.25450    90.39750   225.00000     3.52949
    17.20000    90.00000   225.00000     3.25451    90.39754   225.00000     3.52948
    17.30000    90.00000   225.00000     3.25452    90.39759   225.00000     3.52947
    17.40000    90.00000   225.00000     3.25454    90.39763   225.00000     3.52946
    17.50000    90.00000   225.00000     3.25455    90.39767   225.00000     3.52945
    17.60000    90.00000   225.00000     3.25456    90.39771   225.00000     3.52944
    17.70000    90.00000   225.00000     3.25457    90.39775   225.00000     3.52943
    17.80000    90.00000   225.00000     3.25459    90.39780   225.00000     3.52942
    17.90000    90.00000   225.00000     3.25460    90.39784   225.00000     3.52941
    18.00000    90.00000   225.00000     3.25461    90.39788   225.00000     3.52940
    18.10000    90.00000   225.00000     3.25462    90.39792   225.00000     3.52939
    18.20000    90.00000   225.00000     3.25464    90.39796   225.00000     3.52938
    18.30000    90.00000   225.00000     3.25465    90.39800   225.00000     3.52937
    18.40000    90.00000   225.00000     3.25466    90.39805   225.00000     3.52936
    18.50000    90.00000   225.00000     3.25467    90.39809   225.00000     3.52935
    18.60000    90.00000   225.00000     3.25469    90.39813   225.00000     3.52934
    18.70000    90.00000   225.00000     3.25470    90.39817   225.00000     3.52933
    18.80000    90.00000   225.00000     3.25471    90.39821   225.00000     3.52932
    18.90000    90.00000   225.00000     3.25472    90.39826   225.00000     3.52931
    19.00000    90.00000   225.00000     3.25474    90.39830   225.00000     3.52930
    19.10000    90.00000   225.00000     3.25475    90.39834   225.00000     3.52929
    19.20000    90.00000   225.00000     3.25476    90.39838   225.00000     3.52928
    19.30000    90.00000   225.00000     3.25477    90.39842   225.00000     3.52927
    19.40000    90.00000   225.00000     3.25479    90.39846   225.00000     3.52926
    19.50000    90.00000   225.00000     3.25480    90.39851   225.00000     3.52925
    19.60000    90.00000   225.00000     3.25481    90.39855   225.00000     3.52924
    19.70000    90.00000   225.00000     3.25482    90.39859   225.00000     3.52923
    19.80000    90.00000   225.00000     3.25483    90.39863   225.00000     3.52922
    19.90000    90.00000   225.00000     3.25485    90.39867   225.00000     3.52921
    20.00000    90.00000   225.00000     3.25486    90.39872   225.00000     3.52920
    20.10000    90.00000   225.00000     3.25487    90.39876   225.00000     3.52919
    20.20000    90.00000   225.00000     3.25488    90.39880   225.00000     3.52918
    20.30000    90.00000   225.00000     3.25489    90.39884   225.00000     3.52917
    20.40000    90.00000   225.00000     3.25491    90.39888   225.00000     3.52916
    20.50000    90.00000   225.00000     3.25492    90.39892   225.00000     3.52915
    20.60000    90.00000   225.00000     3.25493    90.39897   225.00000     3.52914
    20.70000    90.00000   225.00000     3.25494    90.39901   225.00000     3.52913
    20.80000    90.00000   225.00000     3.25495    90.39905   225.00000     3.52912
    20.90000    90.00000   225.00000     3.25497    90.39909   225.00000     3.52911
    21.00000    90.00000   225.00000     3.25498    90.39913   225.00000     3.52910
    21.10000    90.00000   225.00000     3.25499    90.39917   225.00000     3.52908
    21.20000    90.00000   225.00000     3.25500    90.39922   225.00000     3.52907
    21.30000    90.00000   225.00000     3.25501    90.39926   225.00000     3.52906
    21.40000    90.00000   225.00000     3.25502    90.39930   225.00000     3.52905
    21.50000    90.00000   225.00000     3.25504    90.39934   225.00000     3.52904
    21.60000    90.00000   225.00000     3.25505    90.39938   225.00000     3.52903
    21.70000    90.00000   225.00000     3.25506    90.39943   225.00000     3.52902
    21.80000    90.00000   225.00000     3.25507    90.39947   225.00000     3.52901
    21.90000    90.00000   225.00000     3.25508    90.39951   225.00000     3.52900
    22.00000    90.00000   225.00000     3.25509    90.39955   225.00000     3.52899
    22.10000    90.00000   225.00000     3.25511    90.39959   225.00000     3.52898
    22.20000    90.00000   225.00000     3.25512    90.39963   225.00000     3.52897
    22.30000    90.00000   225.00000     3.25513    90.39968   225.00000     3.52896
    22.40000    90.00000   225.00000     3.25514    90.39972   225.00000     3.52895
    22.50000    90.00000   225.00000     3.25515    90.39976   225.00000     3.52893
    22.60000    90.00000   225.00000     3.25516    90.39980   225.00000     3.52892
    22.70000    90.00000   225.00000     3.25517    90.39984   225.00000     3.52891
    22.80000    90.00000   225.00000     3.25519    90.39988   225.00000     3.52890
    22.90000    90.00000   225.00000     3.25520    90.39993   225.00000     3.52889
    23.00000    90.00000   225.00000     3.25521    90.39997   225.00000     3.52888
    23.10000    90.00000   225.00000     3.25522    90.40001   225.00000     3.52887
    23.20000    90.00000   225.00000     3.25523    90.40005   225.00000     3.52886
    23.30000    90.00000   225.00000     3.25524    90.40009   225.00000     3.52885
