 # applied field (T), theta (degree), phi (degree), abs [muB/unitcell], abs [T]
       0.00000000       0.00000000       0.00000000      40.01219155       1.33759960
       0.10000000       0.34091622     360.00000000      40.01218660       1.33759943
       0.20000000       0.62513054     360.00000000      40.01217531       1.33759905
       0.30000000       0.96604770     360.00000000      40.01215243       1.33759829
       0.40000000       1.25026331     360.00000000      40.01212663       1.33759743
       0.50000000       1.59118267     360.00000000      40.01208586       1.33759606
       0.60000000       1.93210379     360.00000000      40.01203523       1.33759437
       0.70000000       2.21632350     360.00000000      40.01198696       1.33759276
       0.80000000       2.55724886     360.00000000      40.01191852       1.33759047
       0.90000000       2.89817709     360.00000000      40.01184025       1.33758785
       1.00000000       3.18240351     360.00000000      40.01176962       1.33758549
       1.10000000       3.52333801     360.00000000      40.01167363       1.33758228
       1.20000000       3.80757012     360.00000000      40.01158867       1.33757944
       1.30000000       4.14851219     360.00000000      40.01147504       1.33757564
       1.40000000       4.48945896     360.00000000      40.01135169       1.33757152
       1.50000000       4.77370200     360.00000000      40.01124463       1.33756794
       1.60000000       5.11465833     360.00000000      40.01110379       1.33756323
       1.70000000       5.45562045     360.00000000      40.01095334       1.33755820
       1.80000000       5.73987696     360.00000000      40.01082439       1.33755389
       1.90000000       6.08085064     360.00000000      40.01065662       1.33754828
       2.00000000       6.36511719     360.00000000      40.01051371       1.33754351
       2.10000000       6.70610369     360.00000000      40.01032878       1.33753732
       2.20000000       7.04709778     360.00000000      40.01013443       1.33753083
       2.30000000       7.33138196     360.00000000      40.00997008       1.33752533
       2.40000000       7.67239084     360.00000000      40.00975880       1.33751827
       2.50000000       8.01340839     360.00000000      40.00953825       1.33751090
       2.60000000       8.29771271     360.00000000      40.00935280       1.33750470
       2.70000000       8.63874702     360.00000000      40.00911560       1.33749677
       2.80000000       8.97979107     360.00000000      40.00886928       1.33748853
       2.90000000       9.26411804     360.00000000      40.00866312       1.33748164
       3.00000000       9.60518081     360.00000000      40.00840046       1.33747286
       3.10000000       9.94625440     360.00000000      40.00812887       1.33746378
       3.20000000      10.23060649     360.00000000      40.00790240       1.33745621
       3.30000000      10.57170075     360.00000000      40.00761482       1.33744660
       3.40000000      10.91280688     360.00000000      40.00731850       1.33743669
       3.50000000      11.19718659     360.00000000      40.00707219       1.33742846
       3.60000000      11.53831534     360.00000000      40.00676025       1.33741803
       3.70000000      11.87945701     360.00000000      40.00643978       1.33740732
       3.80000000      12.16386679     360.00000000      40.00617413       1.33739843
       3.90000000      12.50503301     360.00000000      40.00583845       1.33738721
       4.00000000      12.84621321     360.00000000      40.00549448       1.33737571
       4.10000000      13.13065552     360.00000000      40.00521003       1.33736620
       4.20000000      13.47186218     360.00000000      40.00485128       1.33735421
       4.30000000      13.81308387     360.00000000      40.00448449       1.33734195
       4.40000000      14.09756114     360.00000000      40.00418181       1.33733183
       4.50000000      14.43881119     360.00000000      40.00380071       1.33731909
       4.60000000      14.78007731     360.00000000      40.00341181       1.33730609
       4.70000000      15.12135987     360.00000000      40.00301523       1.33729283
       4.80000000      15.40588834     360.00000000      40.00268882       1.33728192
       4.90000000      15.74720181     360.00000000      40.00227860       1.33726821
       5.00000000      16.08853276     360.00000000      40.00186097       1.33725425
       5.10000000      16.42988153     360.00000000      40.00143603       1.33724004
       5.20000000      16.71446559     360.00000000      40.00108710       1.33722838
       5.30000000      17.05584782     360.00000000      40.00064925       1.33721374
       5.40000000      17.39724890     360.00000000      40.00020439       1.33719887
       5.50000000      17.73866919     360.00000000      39.99975264       1.33718377
       5.60000000      18.02331320     360.00000000      39.99938247       1.33717139
       5.70000000      18.36476945     360.00000000      39.99891857       1.33715588
       5.80000000      18.70624592     360.00000000      39.99844809       1.33714015
       5.90000000      19.04774297     360.00000000      39.99797115       1.33712421
       6.00000000      19.38926095     360.00000000      39.99748786       1.33710805
       6.10000000      19.67398670     360.00000000      39.99709283       1.33709485
       6.20000000      20.01554377     360.00000000      39.99659843       1.33707832
       6.30000000      20.35712276     360.00000000      39.99609801       1.33706159
       6.40000000      20.69872403     360.00000000      39.99559171       1.33704467
       6.50000000      21.04034792     360.00000000      39.99507964       1.33702755
       6.60000000      21.32516219     360.00000000      39.99466206       1.33701359
       6.70000000      21.66682824     360.00000000      39.99413995       1.33699613
       6.80000000      22.00851791     360.00000000      39.99361244       1.33697850
       6.90000000      22.35023153     360.00000000      39.99307966       1.33696069
       7.00000000      22.69196945     360.00000000      39.99254172       1.33694271
       7.10000000      23.03373201     360.00000000      39.99199877       1.33692456
       7.20000000      23.37551955     360.00000000      39.99145093       1.33690624
       7.30000000      23.71733241     360.00000000      39.99089834       1.33688777
       7.40000000      24.00230433     360.00000000      39.99044929       1.33687276
       7.50000000      24.34416424     360.00000000      39.98988852       1.33685401
       7.60000000      24.68605043     360.00000000      39.98932337       1.33683512
       7.70000000      25.02796324     360.00000000      39.98875398       1.33681608
       7.80000000      25.36990299     360.00000000      39.98818048       1.33679691
       7.90000000      25.71187002     360.00000000      39.98760302       1.33677761
       8.00000000      26.05386466     360.00000000      39.98702172       1.33675817
       8.10000000      26.39588725     360.00000000      39.98643673       1.33673862
       8.20000000      26.73793810     360.00000000      39.98584819       1.33671894
       8.30000000      27.08001755     360.00000000      39.98525623       1.33669915
       8.40000000      27.42212591     360.00000000      39.98466099       1.33667925
       8.50000000      27.76426353     360.00000000      39.98406262       1.33665925
       8.60000000      28.10643071     360.00000000      39.98346124       1.33663915
       8.70000000      28.44862778     360.00000000      39.98285701       1.33661895
       8.80000000      28.79085505     360.00000000      39.98225006       1.33659866
       8.90000000      29.13311284     360.00000000      39.98164053       1.33657828
       9.00000000      29.47540147     360.00000000      39.98102856       1.33655782
       9.10000000      29.81772125     360.00000000      39.98041430       1.33653729
       9.20000000      30.21703099     360.00000000      39.97967660       1.33651263
       9.30000000      30.55941964     360.00000000      39.97905766       1.33649194
       9.40000000      30.90184041     360.00000000      39.97843686       1.33647118
       9.50000000      31.24429362     360.00000000      39.97781434       1.33645037
       9.60000000      31.58677956     360.00000000      39.97719024       1.33642951
       9.70000000      31.92929853     360.00000000      39.97656471       1.33640860
       9.80000000      32.32884502     360.00000000      39.97581388       1.33638350
       9.90000000      32.67143691     360.00000000      39.97518552       1.33636249
      10.00000000      33.01406276     360.00000000      39.97455615       1.33634145
      10.10000000      33.35672286     360.00000000      39.97392591       1.33632038
      10.20000000      33.75643695     360.00000000      39.97316962       1.33629510
      10.30000000      34.09917258     360.00000000      39.97253777       1.33627398
      10.40000000      34.44194336     360.00000000      39.97190547       1.33625284
      10.50000000      34.78474955     360.00000000      39.97127285       1.33623169
      10.60000000      35.18463702     360.00000000      39.97051380       1.33620632
      10.70000000      35.52752124     360.00000000      39.96988076       1.33618515
      10.80000000      35.92750126     360.00000000      39.96912123       1.33615976
      10.90000000      36.27046475     360.00000000      39.96848836       1.33613861
      11.00000000      36.61346506     360.00000000      39.96785584       1.33611746
      11.10000000      37.01358274     360.00000000      39.96709692       1.33609209
      11.20000000      37.35666406     360.00000000      39.96646541       1.33607098
      11.30000000      37.75687775     360.00000000      39.96570767       1.33604565
      11.40000000      38.10004123     360.00000000      39.96507771       1.33602459
      11.50000000      38.50035225     360.00000000      39.96432178       1.33599932
      11.60000000      38.84359897     360.00000000      39.96369391       1.33597833
      11.70000000      39.24400857     360.00000000      39.96294040       1.33595314
      11.80000000      39.64447196     360.00000000      39.96218836       1.33592800
      11.90000000      39.98784893     360.00000000      39.96156461       1.33590715
      12.00000000      40.38841271     360.00000000      39.96081586       1.33588212
      12.10000000      40.78903121     360.00000000      39.96006903       1.33585715
      12.20000000      41.13254065     360.00000000      39.95945049       1.33583647
      12.30000000      41.53326116     360.00000000      39.95870776       1.33581164
      12.40000000      41.93403722     360.00000000      39.95796737       1.33578689
      12.50000000      42.33486909     360.00000000      39.95722943       1.33576222
      12.60000000      42.67856061     360.00000000      39.95661944       1.33574183
      12.70000000      43.07949636     360.00000000      39.95588655       1.33571733
      12.80000000      43.48048859     360.00000000      39.95515646       1.33569292
      12.90000000      43.88153751     360.00000000      39.95442930       1.33566862
      13.00000000      44.28264331     360.00000000      39.95370516       1.33564441
      13.10000000      44.68380616     360.00000000      39.95298413       1.33562030
      13.20000000      45.08502620     360.00000000      39.95226631       1.33559631
      13.30000000      45.48630359     360.00000000      39.95155177       1.33557242
      13.40000000      45.88763841     360.00000000      39.95084060       1.33554865
      13.50000000      46.34630466     360.00000000      39.95001048       1.33552089
      13.60000000      46.74776335     360.00000000      39.94930660       1.33549736
      13.70000000      47.14927972     360.00000000      39.94860628       1.33547395
      13.80000000      47.55085379     360.00000000      39.94790954       1.33545066
      13.90000000      48.00979563     360.00000000      39.94709573       1.33542346
      14.00000000      48.41149382     360.00000000      39.94640670       1.33540042
      14.10000000      48.87057846     360.00000000      39.94560155       1.33537351
      14.20000000      49.27240057     360.00000000      39.94492034       1.33535073
      14.30000000      49.73162768     360.00000000      39.94412394       1.33532411
      14.40000000      50.13357326     360.00000000      39.94345059       1.33530160
      14.50000000      50.59294219     360.00000000      39.94266297       1.33527527
      14.60000000      51.05238668     360.00000000      39.94187996       1.33524909
      14.70000000      51.45452036     360.00000000      39.94121855       1.33522698
      14.80000000      51.91410510     360.00000000      39.94044422       1.33520110
      14.90000000      52.37376438     360.00000000      39.93967441       1.33517536
      15.00000000      52.83349774     360.00000000      39.93890909       1.33514978
      15.10000000      53.29330469     360.00000000      39.93814819       1.33512434
      15.20000000      53.75318468     360.00000000      39.93739167       1.33509905
      15.30000000      54.21313712     360.00000000      39.93663945       1.33507390
      15.40000000      54.73061522     360.00000000      39.93577773       1.33504510
      15.50000000      55.19071998     360.00000000      39.93503437       1.33502025
      15.60000000      55.65089504     360.00000000      39.93429510       1.33499553
      15.70000000      56.16862256     360.00000000      39.93344748       1.33496720
      15.80000000      56.68643813     360.00000000      39.93260470       1.33493902
      15.90000000      57.14683707     360.00000000      39.93187813       1.33491473
      16.00000000      57.66481491     360.00000000      39.93104435       1.33488686
      16.10000000      58.18287699     360.00000000      39.93021518       1.33485914
      16.20000000      58.70102188     360.00000000      39.92939059       1.33483158
      16.30000000      59.21924809     360.00000000      39.92857052       1.33480416
      16.40000000      59.79510597     360.00000000      39.92764573       1.33477325
      16.50000000      60.31349930     360.00000000      39.92683513       1.33474615
      16.60000000      60.83196897     360.00000000      39.92602906       1.33471920
      16.70000000      61.40809330     360.00000000      39.92511976       1.33468880
      16.80000000      61.98430885     360.00000000      39.92421613       1.33465859
      16.90000000      62.56061326     360.00000000      39.92331834       1.33462858
      17.00000000      63.13700413     360.00000000      39.92242661       1.33459877
      17.10000000      63.77109717     360.00000000      39.92143565       1.33456564
      17.20000000      64.34766245     360.00000000      39.92055753       1.33453629
      17.30000000      64.98194291     360.00000000      39.91958232       1.33450369
      17.40000000      65.61631733     360.00000000      39.91861619       1.33447139
      17.50000000      66.25078264     360.00000000      39.91765981       1.33443942
      17.60000000      66.94299922     360.00000000      39.91661252       1.33440441
      17.70000000      67.63531809     360.00000000      39.91557880       1.33436985
      17.80000000      68.32773563     360.00000000      39.91455990       1.33433579
      17.90000000      69.07793887     360.00000000      39.91345958       1.33429901
      18.00000000      69.82825119     360.00000000      39.91238001       1.33426292
      18.10000000      70.57866867     360.00000000      39.91132317       1.33422759
      18.20000000      71.38690481     360.00000000      39.91019905       1.33419001
      18.30000000      72.25298259     360.00000000      39.90901673       1.33415048
      18.40000000      73.11918910     360.00000000      39.90787383       1.33411227
      18.50000000      74.04326518     360.00000000      39.90669007       1.33407270
      18.60000000      75.02523430     360.00000000      39.90547919       1.33403222
      18.70000000      76.06512015     360.00000000      39.90425713       1.33399137
      18.80000000      77.16294627     360.00000000      39.90304220       1.33395075
      18.90000000      78.37652192     360.00000000      39.90178939       1.33390887
      19.00000000      79.76369917     360.00000000      39.90048160       1.33386515
      19.10000000      81.32456406     360.00000000      39.89919107       1.33382201
      19.20000000      83.23266323     360.00000000      39.89788266       1.33377827
      19.30000000      85.89301316     360.00000000      39.89658338       1.33373484
      19.40000000      90.00000000     360.00000000      39.89589609       1.33371186
      19.50000000      90.00000000     360.00000000      39.89608221       1.33371808
      19.60000000      90.00000000     360.00000000      39.89626831       1.33372430
      19.70000000      90.00000000     360.00000000      39.89645438       1.33373053
      19.80000000      90.00000000     360.00000000      39.89664044       1.33373674
      19.90000000      90.00000000     360.00000000      39.89682647       1.33374296
      20.00000000      90.00000000     360.00000000      39.89701249       1.33374918
      20.10000000      90.00000000     360.00000000      39.89719848       1.33375540
      20.20000000      90.00000000     360.00000000      39.89738445       1.33376162
      20.30000000      90.00000000     360.00000000      39.89757040       1.33376783
      20.40000000      90.00000000     360.00000000      39.89775632       1.33377405
      20.50000000      90.00000000     360.00000000      39.89794223       1.33378026
      20.60000000      90.00000000     360.00000000      39.89812812       1.33378648
      20.70000000      90.00000000     360.00000000      39.89831398       1.33379269
      20.80000000      90.00000000     360.00000000      39.89849983       1.33379890
      20.90000000      90.00000000     360.00000000      39.89868565       1.33380512
      21.00000000      90.00000000     360.00000000      39.89887145       1.33381133
      21.10000000      90.00000000     360.00000000      39.89905723       1.33381754
      21.20000000      90.00000000     360.00000000      39.89924299       1.33382375
      21.30000000      90.00000000     360.00000000      39.89942873       1.33382996
      21.40000000      90.00000000     360.00000000      39.89961445       1.33383617
      21.50000000      90.00000000     360.00000000      39.89980014       1.33384237
      21.60000000      90.00000000     360.00000000      39.89998582       1.33384858
      21.70000000      90.00000000     360.00000000      39.90017147       1.33385479
      21.80000000      90.00000000     360.00000000      39.90035711       1.33386099
      21.90000000      90.00000000     360.00000000      39.90054272       1.33386720
      22.00000000      90.00000000     360.00000000      39.90072831       1.33387340
      22.10000000      90.00000000     360.00000000      39.90091388       1.33387961
      22.20000000      90.00000000     360.00000000      39.90109943       1.33388581
      22.30000000      90.00000000     360.00000000      39.90128496       1.33389201
      22.40000000      90.00000000     360.00000000      39.90147046       1.33389821
      22.50000000      90.00000000     360.00000000      39.90165595       1.33390441
      22.60000000      90.00000000     360.00000000      39.90184142       1.33391061
      22.70000000      90.00000000     360.00000000      39.90202686       1.33391681
      22.80000000      90.00000000     360.00000000      39.90221228       1.33392301
      22.90000000      90.00000000     360.00000000      39.90239768       1.33392921
      23.00000000      90.00000000     360.00000000      39.90258306       1.33393541
