 # applied field (T), theta (degree), phi (degree), abs for RE 3-4
     0.00000   179.68529   315.00000     3.55240   179.68529   225.00000     3.55240
     0.10000   178.94432   242.36090     3.55261   178.63754   225.00000     3.55267
     0.20000   177.96009   233.89066     3.55269   177.58987   225.00000     3.55285
     0.30000   176.96000   230.95692     3.55261   176.54220   225.00000     3.55296
     0.40000   175.95539   229.47646     3.55240   175.49440   225.00000     3.55300
     0.50000   174.89545   228.54728     3.55200   174.39118   225.00000     3.55296
     0.60000   173.88694   227.96238     3.55146   173.34282   225.00000     3.55285
     0.70000   172.87711   227.54245     3.55075   172.29403   225.00000     3.55267
     0.80000   171.81271   227.21166     3.54982   171.18944   225.00000     3.55241
     0.90000   170.74689   226.95634     3.54870   170.08418   225.00000     3.55208
     1.00000   169.73301   226.76235     3.54744   169.03348   225.00000     3.55170
     1.10000   168.66423   226.59508     3.54591   167.92660   225.00000     3.55123
     1.20000   167.54022   226.44978     3.54407   166.76332   225.00000     3.55067
     1.30000   166.46801   226.33333     3.54208   165.65438   225.00000     3.55008
     1.40000   165.34021   226.22889     3.53975   164.48876   225.00000     3.54940
     1.50000   164.21034   226.13888     3.53716   163.32182   225.00000     3.54866
     1.60000   163.07829   226.06042     3.53431   162.15349   225.00000     3.54786
     1.70000   161.88987   225.98826     3.53102   160.92794   225.00000     3.54698
     1.80000   160.69886   225.92452     3.52743   159.70073   225.00000     3.54604
     1.90000   159.45079   225.86531     3.52334   158.41589   225.00000     3.54502
     2.00000   158.19966   225.81240     3.51891   157.12913   225.00000     3.54396
     2.10000   156.89071   225.76282     3.51391   155.78432   225.00000     3.54281
     2.20000   155.57816   225.71808     3.50854   154.43736   225.00000     3.54163
     2.30000   154.20692   225.67584     3.50253   153.03195   225.00000     3.54037
     2.40000   152.83146   225.63738     3.49612   151.62421   225.00000     3.53910
     2.50000   151.34100   225.59948     3.48876   150.10119   225.00000     3.53771
     2.60000   149.78971   225.56359     3.48064   148.51894   225.00000     3.53626
     2.70000   148.23248   225.53067     3.47205   146.93389   225.00000     3.53481
     2.80000   146.55714   225.49824     3.46238   145.23259   225.00000     3.53327
     2.90000   144.76197   225.46644     3.45156   143.41457   225.00000     3.53165
     3.00000   142.90160   225.43622     3.43993   141.53637   225.00000     3.53001
     3.10000   140.86118   225.40584     3.42680   139.48378   225.00000     3.52828
     3.20000   138.69472   225.37626     3.41255   137.31340   225.00000     3.52652
     3.30000   136.34230   225.34682     3.39692   134.96777   225.00000     3.52471
     3.40000   133.74241   225.31701     3.37968   132.38924   225.00000     3.52283
     3.50000   130.83181   225.28649     3.36078   129.51999   225.00000     3.52087
     3.60000   127.42775   225.25398     3.33965   126.18715   225.00000     3.51878
     3.70000   123.34213   225.21859     3.31633   122.21743   225.00000     3.51651
     3.80000   118.20250   225.17845     3.29105   117.26434   225.00000     3.51391
     3.90000   110.84220   225.12701     3.26415   110.22993   225.00000     3.51044
     4.00000    90.00000   225.00000     3.25160    90.42830   225.00000     3.49971
     4.10000    90.00000   225.00000     3.25161    90.42833   225.00000     3.49970
     4.20000    90.00000   225.00000     3.25163    90.42836   225.00000     3.49969
     4.30000    90.00000   225.00000     3.25164    90.42839   225.00000     3.49969
     4.40000    90.00000   225.00000     3.25165    90.42841   225.00000     3.49968
     4.50000    90.00000   225.00000     3.25166    90.42844   225.00000     3.49967
     4.60000    90.00000   225.00000     3.25167    90.42847   225.00000     3.49966
     4.70000    90.00000   225.00000     3.25169    90.42850   225.00000     3.49966
     4.80000    90.00000   225.00000     3.25170    90.42853   225.00000     3.49965
     4.90000    90.00000   225.00000     3.25171    90.42856   225.00000     3.49964
     5.00000    90.00000   225.00000     3.25172    90.42859   225.00000     3.49963
     5.10000    90.00000   225.00000     3.25173    90.42862   225.00000     3.49962
     5.20000    90.00000   225.00000     3.25175    90.42865   225.00000     3.49961
     5.30000    90.00000   225.00000     3.25176    90.42868   225.00000     3.49961
     5.40000    90.00000   225.00000     3.25177    90.42870   225.00000     3.49960
     5.50000    90.00000   225.00000     3.25178    90.42873   225.00000     3.49959
     5.60000    90.00000   225.00000     3.25179    90.42876   225.00000     3.49958
     5.70000    90.00000   225.00000     3.25181    90.42879   225.00000     3.49957
     5.80000    90.00000   225.00000     3.25182    90.42882   225.00000     3.49957
     5.90000    90.00000   225.00000     3.25183    90.42885   225.00000     3.49956
     6.00000    90.00000   225.00000     3.25184    90.42888   225.00000     3.49955
     6.10000    90.00000   225.00000     3.25185    90.42891   225.00000     3.49954
     6.20000    90.00000   225.00000     3.25187    90.42894   225.00000     3.49953
     6.30000    90.00000   225.00000     3.25188    90.42896   225.00000     3.49952
     6.40000    90.00000   225.00000     3.25189    90.42899   225.00000     3.49952
     6.50000    90.00000   225.00000     3.25190    90.42902   225.00000     3.49951
     6.60000    90.00000   225.00000     3.25191    90.42905   225.00000     3.49950
     6.70000    90.00000   225.00000     3.25192    90.42908   225.00000     3.49949
     6.80000    90.00000   225.00000     3.25194    90.42911   225.00000     3.49948
     6.90000    90.00000   225.00000     3.25195    90.42914   225.00000     3.49947
     7.00000    90.00000   225.00000     3.25196    90.42917   225.00000     3.49947
     7.10000    90.00000   225.00000     3.25197    90.42920   225.00000     3.49946
     7.20000    90.00000   225.00000     3.25198    90.42923   225.00000     3.49945
     7.30000    90.00000   225.00000     3.25199    90.42925   225.00000     3.49944
     7.40000    90.00000   225.00000     3.25201    90.42928   225.00000     3.49943
     7.50000    90.00000   225.00000     3.25202    90.42931   225.00000     3.49942
     7.60000    90.00000   225.00000     3.25203    90.42934   225.00000     3.49941
     7.70000    90.00000   225.00000     3.25204    90.42937   225.00000     3.49941
     7.80000    90.00000   225.00000     3.25205    90.42940   225.00000     3.49940
     7.90000    90.00000   225.00000     3.25206    90.42943   225.00000     3.49939
     8.00000    90.00000   225.00000     3.25207    90.42946   225.00000     3.49938
     8.10000    90.00000   225.00000     3.25209    90.42949   225.00000     3.49937
     8.20000    90.00000   225.00000     3.25210    90.42951   225.00000     3.49936
     8.30000    90.00000   225.00000     3.25211    90.42954   225.00000     3.49935
     8.40000    90.00000   225.00000     3.25212    90.42957   225.00000     3.49935
     8.50000    90.00000   225.00000     3.25213    90.42960   225.00000     3.49934
     8.60000    90.00000   225.00000     3.25214    90.42963   225.00000     3.49933
     8.70000    90.00000   225.00000     3.25215    90.42966   225.00000     3.49932
     8.80000    90.00000   225.00000     3.25217    90.42969   225.00000     3.49931
     8.90000    90.00000   225.00000     3.25218    90.42972   225.00000     3.49930
     9.00000    90.00000   225.00000     3.25219    90.42975   225.00000     3.49929
     9.10000    90.00000   225.00000     3.25220    90.42978   225.00000     3.49928
     9.20000    90.00000   225.00000     3.25221    90.42980   225.00000     3.49927
     9.30000    90.00000   225.00000     3.25222    90.42983   225.00000     3.49927
     9.40000    90.00000   225.00000     3.25223    90.42986   225.00000     3.49926
     9.50000    90.00000   225.00000     3.25224    90.42989   225.00000     3.49925
     9.60000    90.00000   225.00000     3.25225    90.42992   225.00000     3.49924
     9.70000    90.00000   225.00000     3.25227    90.42995   225.00000     3.49923
     9.80000    90.00000   225.00000     3.25228    90.42998   225.00000     3.49922
     9.90000    90.00000   225.00000     3.25229    90.43001   225.00000     3.49921
    10.00000    90.00000   225.00000     3.25230    90.43004   225.00000     3.49920
    10.10000    90.00000   225.00000     3.25231    90.43006   225.00000     3.49919
    10.20000    90.00000   225.00000     3.25232    90.43009   225.00000     3.49918
    10.30000    90.00000   225.00000     3.25233    90.43012   225.00000     3.49918
    10.40000    90.00000   225.00000     3.25234    90.43015   225.00000     3.49917
    10.50000    90.00000   225.00000     3.25235    90.43018   225.00000     3.49916
    10.60000    90.00000   225.00000     3.25236    90.43021   225.00000     3.49915
    10.70000    90.00000   225.00000     3.25237    90.43024   225.00000     3.49914
    10.80000    90.00000   225.00000     3.25238    90.43027   225.00000     3.49913
    10.90000    90.00000   225.00000     3.25240    90.43030   225.00000     3.49912
    11.00000    90.00000   225.00000     3.25241    90.43033   225.00000     3.49911
    11.10000    90.00000   225.00000     3.25242    90.43035   225.00000     3.49910
    11.20000    90.00000   225.00000     3.25243    90.43038   225.00000     3.49909
    11.30000    90.00000   225.00000     3.25244    90.43041   225.00000     3.49908
    11.40000    90.00000   225.00000     3.25245    90.43044   225.00000     3.49907
    11.50000    90.00000   225.00000     3.25246    90.43047   225.00000     3.49906
    11.60000    90.00000   225.00000     3.25247    90.43050   225.00000     3.49906
    11.70000    90.00000   225.00000     3.25248    90.43053   225.00000     3.49905
    11.80000    90.00000   225.00000     3.25249    90.43056   225.00000     3.49904
    11.90000    90.00000   225.00000     3.25250    90.43059   225.00000     3.49903
    12.00000    90.00000   225.00000     3.25251    90.43061   225.00000     3.49902
    12.10000    90.00000   225.00000     3.25252    90.43064   225.00000     3.49901
    12.20000    90.00000   225.00000     3.25253    90.43067   225.00000     3.49900
    12.30000    90.00000   225.00000     3.25254    90.43070   225.00000     3.49899
    12.40000    90.00000   225.00000     3.25255    90.43073   225.00000     3.49898
    12.50000    90.00000   225.00000     3.25256    90.43076   225.00000     3.49897
    12.60000    90.00000   225.00000     3.25257    90.43079   225.00000     3.49896
    12.70000    90.00000   225.00000     3.25258    90.43082   225.00000     3.49895
    12.80000    90.00000   225.00000     3.25259    90.43085   225.00000     3.49894
    12.90000    90.00000   225.00000     3.25261    90.43088   225.00000     3.49893
    13.00000    90.00000   225.00000     3.25262    90.43090   225.00000     3.49892
    13.10000    90.00000   225.00000     3.25263    90.43093   225.00000     3.49891
    13.20000    90.00000   225.00000     3.25264    90.43096   225.00000     3.49890
    13.30000    90.00000   225.00000     3.25265    90.43099   225.00000     3.49889
    13.40000    90.00000   225.00000     3.25266    90.43102   225.00000     3.49888
    13.50000    90.00000   225.00000     3.25267    90.43105   225.00000     3.49887
    13.60000    90.00000   225.00000     3.25268    90.43108   225.00000     3.49886
    13.70000    90.00000   225.00000     3.25269    90.43111   225.00000     3.49885
    13.80000    90.00000   225.00000     3.25270    90.43114   225.00000     3.49884
    13.90000    90.00000   225.00000     3.25271    90.43116   225.00000     3.49883
    14.00000    90.00000   225.00000     3.25272    90.43119   225.00000     3.49882
    14.10000    90.00000   225.00000     3.25273    90.43122   225.00000     3.49881
    14.20000    90.00000   225.00000     3.25274    90.43125   225.00000     3.49880
    14.30000    90.00000   225.00000     3.25275    90.43128   225.00000     3.49879
    14.40000    90.00000   225.00000     3.25276    90.43131   225.00000     3.49878
    14.50000    90.00000   225.00000     3.25277    90.43134   225.00000     3.49877
    14.60000    90.00000   225.00000     3.25278    90.43137   225.00000     3.49876
    14.70000    90.00000   225.00000     3.25279    90.43140   225.00000     3.49875
    14.80000    90.00000   225.00000     3.25280    90.43142   225.00000     3.49874
    14.90000    90.00000   225.00000     3.25281    90.43145   225.00000     3.49873
    15.00000    90.00000   225.00000     3.25282    90.43148   225.00000     3.49872
    15.10000    90.00000   225.00000     3.25283    90.43151   225.00000     3.49871
    15.20000    90.00000   225.00000     3.25284    90.43154   225.00000     3.49870
    15.30000    90.00000   225.00000     3.25284    90.43157   225.00000     3.49869
    15.40000    90.00000   225.00000     3.25285    90.43160   225.00000     3.49868
    15.50000    90.00000   225.00000     3.25286    90.43163   225.00000     3.49867
    15.60000    90.00000   225.00000     3.25287    90.43166   225.00000     3.49866
    15.70000    90.00000   225.00000     3.25288    90.43168   225.00000     3.49865
    15.80000    90.00000   225.00000     3.25289    90.43171   225.00000     3.49864
    15.90000    90.00000   225.00000     3.25290    90.43174   225.00000     3.49863
    16.00000    90.00000   225.00000     3.25291    90.43177   225.00000     3.49862
    16.10000    90.00000   225.00000     3.25292    90.43180   225.00000     3.49861
    16.20000    90.00000   225.00000     3.25293    90.43183   225.00000     3.49860
    16.30000    90.00000   225.00000     3.25294    90.43186   225.00000     3.49859
    16.40000    90.00000   225.00000     3.25295    90.43189   225.00000     3.49858
    16.50000    90.00000   225.00000     3.25296    90.43192   225.00000     3.49857
    16.60000    90.00000   225.00000     3.25297    90.43195   225.00000     3.49856
    16.70000    90.00000   225.00000     3.25298    90.43197   225.00000     3.49855
    16.80000    90.00000   225.00000     3.25299    90.43200   225.00000     3.49854
    16.90000    90.00000   225.00000     3.25300    90.43203   225.00000     3.49853
    17.00000    90.00000   225.00000     3.25301    90.43206   225.00000     3.49852
    17.10000    90.00000   225.00000     3.25302    90.43209   225.00000     3.49851
    17.20000    90.00000   225.00000     3.25303    90.43212   225.00000     3.49850
    17.30000    90.00000   225.00000     3.25303    90.43215   225.00000     3.49849
    17.40000    90.00000   225.00000     3.25304    90.43218   225.00000     3.49848
    17.50000    90.00000   225.00000     3.25305    90.43221   225.00000     3.49847
    17.60000    90.00000   225.00000     3.25306    90.43223   225.00000     3.49846
    17.70000    90.00000   225.00000     3.25307    90.43226   225.00000     3.49844
    17.80000    90.00000   225.00000     3.25308    90.43229   225.00000     3.49843
    17.90000    90.00000   225.00000     3.25309    90.43232   225.00000     3.49842
    18.00000    90.00000   225.00000     3.25310    90.43235   225.00000     3.49841
    18.10000    90.00000   225.00000     3.25311    90.43238   225.00000     3.49840
    18.20000    90.00000   225.00000     3.25312    90.43241   225.00000     3.49839
    18.30000    90.00000   225.00000     3.25313    90.43244   225.00000     3.49838
    18.40000    90.00000   225.00000     3.25313    90.43247   225.00000     3.49837
    18.50000    90.00000   225.00000     3.25314    90.43249   225.00000     3.49836
    18.60000    90.00000   225.00000     3.25315    90.43252   225.00000     3.49835
    18.70000    90.00000   225.00000     3.25316    90.43255   225.00000     3.49834
    18.80000    90.00000   225.00000     3.25317    90.43258   225.00000     3.49833
    18.90000    90.00000   225.00000     3.25318    90.43261   225.00000     3.49832
    19.00000    90.00000   225.00000     3.25319    90.43264   225.00000     3.49830
    19.10000    90.00000   225.00000     3.25320    90.43267   225.00000     3.49829
    19.20000    90.00000   225.00000     3.25321    90.43270   225.00000     3.49828
    19.30000    90.00000   225.00000     3.25321    90.43273   225.00000     3.49827
    19.40000    90.00000   225.00000     3.25322    90.43275   225.00000     3.49826
    19.50000    90.00000   225.00000     3.25323    90.43278   225.00000     3.49825
    19.60000    90.00000   225.00000     3.25324    90.43281   225.00000     3.49824
    19.70000    90.00000   225.00000     3.25325    90.43284   225.00000     3.49823
    19.80000    90.00000   225.00000     3.25326    90.43287   225.00000     3.49822
    19.90000    90.00000   225.00000     3.25327    90.43290   225.00000     3.49821
    20.00000    90.00000   225.00000     3.25328    90.43293   225.00000     3.49819
    20.10000    90.00000   225.00000     3.25328    90.43296   225.00000     3.49818
    20.20000    90.00000   225.00000     3.25329    90.43299   225.00000     3.49817
    20.30000    90.00000   225.00000     3.25330    90.43302   225.00000     3.49816
    20.40000    90.00000   225.00000     3.25331    90.43304   225.00000     3.49815
    20.50000    90.00000   225.00000     3.25332    90.43307   225.00000     3.49814
    20.60000    90.00000   225.00000     3.25333    90.43310   225.00000     3.49813
    20.70000    90.00000   225.00000     3.25334    90.43313   225.00000     3.49812
    20.80000    90.00000   225.00000     3.25334    90.43316   225.00000     3.49810
    20.90000    90.00000   225.00000     3.25335    90.43319   225.00000     3.49809
    21.00000    90.00000   225.00000     3.25336    90.43322   225.00000     3.49808
    21.10000    90.00000   225.00000     3.25337    90.43325   225.00000     3.49807
    21.20000    90.00000   225.00000     3.25338    90.43328   225.00000     3.49806
    21.30000    90.00000   225.00000     3.25339    90.43330   225.00000     3.49805
    21.40000    90.00000   225.00000     3.25339    90.43333   225.00000     3.49804
    21.50000    90.00000   225.00000     3.25340    90.43336   225.00000     3.49803
    21.60000    90.00000   225.00000     3.25341    90.43339   225.00000     3.49801
    21.70000    90.00000   225.00000     3.25342    90.43342   225.00000     3.49800
    21.80000    90.00000   225.00000     3.25343    90.43345   225.00000     3.49799
    21.90000    90.00000   225.00000     3.25344    90.43348   225.00000     3.49798
    22.00000    90.00000   225.00000     3.25344    90.43351   225.00000     3.49797
    22.10000    90.00000   225.00000     3.25345    90.43354   225.00000     3.49796
    22.20000    90.00000   225.00000     3.25346    90.43356   225.00000     3.49794
    22.30000    90.00000   225.00000     3.25347    90.43359   225.00000     3.49793
    22.40000    90.00000   225.00000     3.25348    90.43362   225.00000     3.49792
    22.50000    90.00000   225.00000     3.25348    90.43365   225.00000     3.49791
    22.60000    90.00000   225.00000     3.25349    90.43368   225.00000     3.49790
    22.70000    90.00000   225.00000     3.25350    90.43371   225.00000     3.49789
    22.80000    90.00000   225.00000     3.25351    90.43374   225.00000     3.49788
    22.90000    90.00000   225.00000     3.25352    90.43377   225.00000     3.49786
    23.00000    90.00000   225.00000     3.25352    90.43380   225.00000     3.49785
    23.10000    90.00000   225.00000     3.25353    90.43382   225.00000     3.49784
    23.20000    90.00000   225.00000     3.25354    90.43385   225.00000     3.49783
    23.30000    90.00000   225.00000     3.25355    90.43388   225.00000     3.49782
