 # applied field (T), theta (degree), phi (degree), abs [muB/unitcell], abs [T]
       0.00000000       0.00000000       0.00000000      42.80486151       1.47289136
       0.10000000       0.74240746     360.00000000      42.80483706       1.47289052
       0.20000000       1.48481748     360.00000000      42.80476372       1.47288799
       0.30000000       2.22723264     360.00000000      42.80464158       1.47288379
       0.40000000       2.96965549     360.00000000      42.80447078       1.47287791
       0.50000000       3.65502505     360.00000000      42.80427131       1.47287105
       0.60000000       4.39746981     360.00000000      42.80400777       1.47286198
       0.70000000       5.13992967     360.00000000      42.80369630       1.47285126
       0.80000000       5.88240711     360.00000000      42.80333725       1.47283891
       0.90000000       6.62490464     360.00000000      42.80293103       1.47282493
       1.00000000       7.36742468     360.00000000      42.80247809       1.47280935
       1.10000000       8.10996968     360.00000000      42.80197896       1.47279217
       1.20000000       8.90961746     360.00000000      42.80138749       1.47277182
       1.30000000       9.65222196     360.00000000      42.80079402       1.47275140
       1.40000000      10.39485866     360.00000000      42.80015626       1.47272945
       1.50000000      11.13752983     360.00000000      42.79947492       1.47270601
       1.60000000      11.88023769     360.00000000      42.79875075       1.47268109
       1.70000000      12.68007430     360.00000000      42.79791977       1.47265250
       1.80000000      13.42286542     360.00000000      42.79710907       1.47262460
       1.90000000      14.16569981     360.00000000      42.79625818       1.47259532
       2.00000000      14.96568023     360.00000000      42.79529309       1.47256211
       2.10000000      15.70861100     360.00000000      42.79436154       1.47253006
       2.20000000      16.50870004     360.00000000      42.79331143       1.47249393
       2.30000000      17.30884890     360.00000000      42.79221904       1.47245634
       2.40000000      18.10905982     360.00000000      42.79108574       1.47241734
       2.50000000      18.85221196     360.00000000      42.79000367       1.47238011
       2.60000000      19.65254836     360.00000000      42.78879574       1.47233854
       2.70000000      20.45295283     360.00000000      42.78755116       1.47229572
       2.80000000      21.31056560     360.00000000      42.78617238       1.47224828
       2.90000000      22.11111713     360.00000000      42.78485659       1.47220300
       3.00000000      22.91174218     360.00000000      42.78350897       1.47215663
       3.10000000      23.76959764     360.00000000      42.78202453       1.47210555
       3.20000000      24.57038007     360.00000000      42.78061596       1.47205708
       3.30000000      25.42840788     360.00000000      42.77906957       1.47200387
       3.40000000      26.28652730     360.00000000      42.77749408       1.47194966
       3.50000000      27.14473975     360.00000000      42.77589159       1.47189452
       3.60000000      28.00304649     360.00000000      42.77426423       1.47183852
       3.70000000      28.91864267     360.00000000      42.77249543       1.47177766
       3.80000000      29.77714801     360.00000000      42.77082325       1.47172012
       3.90000000      30.69295871     360.00000000      42.76901111       1.47165777
       4.00000000      31.60888165     360.00000000      42.76718032       1.47159477
       4.10000000      32.52491751     360.00000000      42.76533350       1.47153122
       4.20000000      33.44106681     360.00000000      42.76347326       1.47146721
       4.30000000      34.41456798     360.00000000      42.76147623       1.47139850
       4.40000000      35.38819849     360.00000000      42.75946961       1.47132945
       4.50000000      36.36195833     360.00000000      42.75745646       1.47126018
       4.60000000      37.33584729     360.00000000      42.75543980       1.47119079
       4.70000000      38.36713527     360.00000000      42.75329497       1.47111698
       4.80000000      39.39856754     360.00000000      42.75115259       1.47104327
       4.90000000      40.43014312     360.00000000      42.74901607       1.47096975
       5.00000000      41.51915652     360.00000000      42.74676177       1.47089218
       5.10000000      42.60832735     360.00000000      42.74452113       1.47081508
       5.20000000      43.75496700     360.00000000      42.74217239       1.47073426
       5.30000000      44.90177717     360.00000000      42.73984671       1.47065424
       5.40000000      46.10608638     360.00000000      42.73742507       1.47057091
       5.50000000      47.31057761     360.00000000      42.73503745       1.47048875
       5.60000000      48.51524683     360.00000000      42.73268816       1.47040791
       5.70000000      49.83480686     360.00000000      42.73014595       1.47032044
       5.80000000      51.15457122     360.00000000      42.72765907       1.47023487
       5.90000000      52.53191089     360.00000000      42.72511970       1.47014749
       6.00000000      53.96684628     360.00000000      42.72254101       1.47005876
       6.10000000      55.45939666     360.00000000      42.71993740       1.46996917
       6.20000000      57.00957985     360.00000000      42.71732449       1.46987926
       6.30000000      58.61741191     360.00000000      42.71471907       1.46978961
       6.40000000      60.34033125     360.00000000      42.71204497       1.46969759
       6.50000000      62.17837709     360.00000000      42.70933578       1.46960437
       6.60000000      64.18902841     360.00000000      42.70654536       1.46950836
       6.70000000      66.31489036     360.00000000      42.70380989       1.46941423
       6.80000000      68.67091013     360.00000000      42.70103501       1.46931875
       6.90000000      71.31462617     360.00000000      42.69825389       1.46922305
       7.00000000      74.47603732     360.00000000      42.69539339       1.46912462
       7.10000000      78.38524843     360.00000000      42.69258249       1.46902790
       7.20000000      84.82487246     360.00000000      42.68970612       1.46892893
       7.30000000      90.00000000     360.00000000      42.68917949       1.46891081
       7.40000000      90.00000000     360.00000000      42.68942760       1.46891934
       7.50000000      90.00000000     360.00000000      42.68967568       1.46892788
       7.60000000      90.00000000     360.00000000      42.68992375       1.46893641
       7.70000000      90.00000000     360.00000000      42.69017179       1.46894495
       7.80000000      90.00000000     360.00000000      42.69041981       1.46895348
       7.90000000      90.00000000     360.00000000      42.69066780       1.46896202
       8.00000000      90.00000000     360.00000000      42.69091578       1.46897055
       8.10000000      90.00000000     360.00000000      42.69116373       1.46897908
       8.20000000      90.00000000     360.00000000      42.69141166       1.46898761
       8.30000000      90.00000000     360.00000000      42.69165957       1.46899614
       8.40000000      90.00000000     360.00000000      42.69190745       1.46900467
       8.50000000      90.00000000     360.00000000      42.69215531       1.46901320
       8.60000000      90.00000000     360.00000000      42.69240315       1.46902173
       8.70000000      90.00000000     360.00000000      42.69265097       1.46903026
       8.80000000      90.00000000     360.00000000      42.69289877       1.46903878
       8.90000000      90.00000000     360.00000000      42.69314654       1.46904731
       9.00000000      90.00000000     360.00000000      42.69339429       1.46905583
       9.10000000      90.00000000     360.00000000      42.69364202       1.46906436
       9.20000000      90.00000000     360.00000000      42.69388973       1.46907288
       9.30000000      90.00000000     360.00000000      42.69413741       1.46908140
       9.40000000      90.00000000     360.00000000      42.69438507       1.46908993
       9.50000000      90.00000000     360.00000000      42.69463271       1.46909845
       9.60000000      90.00000000     360.00000000      42.69488033       1.46910697
       9.70000000      90.00000000     360.00000000      42.69512793       1.46911549
       9.80000000      90.00000000     360.00000000      42.69537550       1.46912401
       9.90000000      90.00000000     360.00000000      42.69562305       1.46913252
      10.00000000      90.00000000     360.00000000      42.69587058       1.46914104
      10.10000000      90.00000000     360.00000000      42.69611809       1.46914956
      10.20000000      90.00000000     360.00000000      42.69636557       1.46915807
      10.30000000      90.00000000     360.00000000      42.69661303       1.46916659
      10.40000000      90.00000000     360.00000000      42.69686047       1.46917510
      10.50000000      90.00000000     360.00000000      42.69710789       1.46918362
      10.60000000      90.00000000     360.00000000      42.69735529       1.46919213
      10.70000000      90.00000000     360.00000000      42.69760266       1.46920064
      10.80000000      90.00000000     360.00000000      42.69785001       1.46920915
      10.90000000      90.00000000     360.00000000      42.69809734       1.46921766
      11.00000000      90.00000000     360.00000000      42.69834465       1.46922617
      11.10000000      90.00000000     360.00000000      42.69859194       1.46923468
      11.20000000      90.00000000     360.00000000      42.69883920       1.46924319
      11.30000000      90.00000000     360.00000000      42.69908644       1.46925170
      11.40000000      90.00000000     360.00000000      42.69933366       1.46926020
      11.50000000      90.00000000     360.00000000      42.69958086       1.46926871
      11.60000000      90.00000000     360.00000000      42.69982803       1.46927722
      11.70000000      90.00000000     360.00000000      42.70007519       1.46928572
      11.80000000      90.00000000     360.00000000      42.70032232       1.46929422
      11.90000000      90.00000000     360.00000000      42.70056943       1.46930273
      12.00000000      90.00000000     360.00000000      42.70081651       1.46931123
      12.10000000      90.00000000     360.00000000      42.70106358       1.46931973
      12.20000000      90.00000000     360.00000000      42.70131062       1.46932823
      12.30000000      90.00000000     360.00000000      42.70155764       1.46933673
      12.40000000      90.00000000     360.00000000      42.70180464       1.46934523
      12.50000000      90.00000000     360.00000000      42.70205162       1.46935373
      12.60000000      90.00000000     360.00000000      42.70229858       1.46936223
      12.70000000      90.00000000     360.00000000      42.70254551       1.46937072
      12.80000000      90.00000000     360.00000000      42.70279242       1.46937922
      12.90000000      90.00000000     360.00000000      42.70303931       1.46938771
      13.00000000      90.00000000     360.00000000      42.70328618       1.46939621
      13.10000000      90.00000000     360.00000000      42.70353302       1.46940470
      13.20000000      90.00000000     360.00000000      42.70377985       1.46941320
      13.30000000      90.00000000     360.00000000      42.70402665       1.46942169
      13.40000000      90.00000000     360.00000000      42.70427343       1.46943018
      13.50000000      90.00000000     360.00000000      42.70452019       1.46943867
      13.60000000      90.00000000     360.00000000      42.70476692       1.46944716
      13.70000000      90.00000000     360.00000000      42.70501364       1.46945565
      13.80000000      90.00000000     360.00000000      42.70526033       1.46946414
      13.90000000      90.00000000     360.00000000      42.70550700       1.46947263
      14.00000000      90.00000000     360.00000000      42.70575365       1.46948111
      14.10000000      90.00000000     360.00000000      42.70600027       1.46948960
      14.20000000      90.00000000     360.00000000      42.70624688       1.46949808
      14.30000000      90.00000000     360.00000000      42.70649346       1.46950657
      14.40000000      90.00000000     360.00000000      42.70674002       1.46951505
      14.50000000      90.00000000     360.00000000      42.70698656       1.46952354
      14.60000000      90.00000000     360.00000000      42.70723308       1.46953202
      14.70000000      90.00000000     360.00000000      42.70747958       1.46954050
      14.80000000      90.00000000     360.00000000      42.70772605       1.46954898
      14.90000000      90.00000000     360.00000000      42.70797250       1.46955746
      15.00000000      90.00000000     360.00000000      42.70821894       1.46956594
      15.10000000      90.00000000     360.00000000      42.70846534       1.46957442
      15.20000000      90.00000000     360.00000000      42.70871173       1.46958290
      15.30000000      90.00000000     360.00000000      42.70895810       1.46959138
      15.40000000      90.00000000     360.00000000      42.70920444       1.46959985
      15.50000000      90.00000000     360.00000000      42.70945076       1.46960833
      15.60000000      90.00000000     360.00000000      42.70969706       1.46961680
      15.70000000      90.00000000     360.00000000      42.70994334       1.46962528
      15.80000000      90.00000000     360.00000000      42.71018960       1.46963375
      15.90000000      90.00000000     360.00000000      42.71043583       1.46964222
      16.00000000      90.00000000     360.00000000      42.71068205       1.46965070
      16.10000000      90.00000000     360.00000000      42.71092824       1.46965917
      16.20000000      90.00000000     360.00000000      42.71117441       1.46966764
      16.30000000      90.00000000     360.00000000      42.71142056       1.46967611
      16.40000000      90.00000000     360.00000000      42.71166668       1.46968458
      16.50000000      90.00000000     360.00000000      42.71191279       1.46969305
      16.60000000      90.00000000     360.00000000      42.71215887       1.46970151
      16.70000000      90.00000000     360.00000000      42.71240493       1.46970998
      16.80000000      90.00000000     360.00000000      42.71265097       1.46971845
      16.90000000      90.00000000     360.00000000      42.71289699       1.46972691
      17.00000000      90.00000000     360.00000000      42.71314299       1.46973538
      17.10000000      90.00000000     360.00000000      42.71338897       1.46974384
      17.20000000      90.00000000     360.00000000      42.71363492       1.46975230
      17.30000000      90.00000000     360.00000000      42.71388085       1.46976077
      17.40000000      90.00000000     360.00000000      42.71412676       1.46976923
      17.50000000      90.00000000     360.00000000      42.71437265       1.46977769
      17.60000000      90.00000000     360.00000000      42.71461852       1.46978615
      17.70000000      90.00000000     360.00000000      42.71486437       1.46979461
      17.80000000      90.00000000     360.00000000      42.71511019       1.46980307
      17.90000000      90.00000000     360.00000000      42.71535599       1.46981152
      18.00000000      90.00000000     360.00000000      42.71560178       1.46981998
      18.10000000      90.00000000     360.00000000      42.71584754       1.46982844
      18.20000000      90.00000000     360.00000000      42.71609327       1.46983689
      18.30000000      90.00000000     360.00000000      42.71633899       1.46984535
      18.40000000      90.00000000     360.00000000      42.71658469       1.46985380
      18.50000000      90.00000000     360.00000000      42.71683036       1.46986226
      18.60000000      90.00000000     360.00000000      42.71707601       1.46987071
      18.70000000      90.00000000     360.00000000      42.71732165       1.46987916
      18.80000000      90.00000000     360.00000000      42.71756726       1.46988761
      18.90000000      90.00000000     360.00000000      42.71781284       1.46989606
      19.00000000      90.00000000     360.00000000      42.71805841       1.46990451
      19.10000000      90.00000000     360.00000000      42.71830396       1.46991296
      19.20000000      90.00000000     360.00000000      42.71854948       1.46992141
      19.30000000      90.00000000     360.00000000      42.71879498       1.46992986
      19.40000000      90.00000000     360.00000000      42.71904046       1.46993830
      19.50000000      90.00000000     360.00000000      42.71928592       1.46994675
      19.60000000      90.00000000     360.00000000      42.71953136       1.46995520
      19.70000000      90.00000000     360.00000000      42.71977678       1.46996364
      19.80000000      90.00000000     360.00000000      42.72002218       1.46997208
      19.90000000      90.00000000     360.00000000      42.72026755       1.46998053
      20.00000000      90.00000000     360.00000000      42.72051290       1.46998897
      20.10000000      90.00000000     360.00000000      42.72075823       1.46999741
      20.20000000      90.00000000     360.00000000      42.72100355       1.47000585
      20.30000000      90.00000000     360.00000000      42.72124883       1.47001429
      20.40000000      90.00000000     360.00000000      42.72149410       1.47002273
      20.50000000      90.00000000     360.00000000      42.72173935       1.47003117
      20.60000000      90.00000000     360.00000000      42.72198457       1.47003961
      20.70000000      90.00000000     360.00000000      42.72222978       1.47004805
      20.80000000      90.00000000     360.00000000      42.72247496       1.47005648
      20.90000000      90.00000000     360.00000000      42.72272012       1.47006492
      21.00000000      90.00000000     360.00000000      42.72296526       1.47007335
      21.10000000      90.00000000     360.00000000      42.72321038       1.47008179
      21.20000000      90.00000000     360.00000000      42.72345548       1.47009022
      21.30000000      90.00000000     360.00000000      42.72370055       1.47009866
      21.40000000      90.00000000     360.00000000      42.72394561       1.47010709
      21.50000000      90.00000000     360.00000000      42.72419064       1.47011552
      21.60000000      90.00000000     360.00000000      42.72443566       1.47012395
      21.70000000      90.00000000     360.00000000      42.72468065       1.47013238
      21.80000000      90.00000000     360.00000000      42.72492562       1.47014081
      21.90000000      90.00000000     360.00000000      42.72517057       1.47014924
      22.00000000      90.00000000     360.00000000      42.72541549       1.47015767
      22.10000000      90.00000000     360.00000000      42.72566040       1.47016609
      22.20000000      90.00000000     360.00000000      42.72590529       1.47017452
      22.30000000      90.00000000     360.00000000      42.72615015       1.47018295
      22.40000000      90.00000000     360.00000000      42.72639499       1.47019137
      22.50000000      90.00000000     360.00000000      42.72663982       1.47019979
      22.60000000      90.00000000     360.00000000      42.72688462       1.47020822
      22.70000000      90.00000000     360.00000000      42.72712940       1.47021664
      22.80000000      90.00000000     360.00000000      42.72737415       1.47022506
      22.90000000      90.00000000     360.00000000      42.72761889       1.47023348
      23.00000000      90.00000000     360.00000000      42.72786361       1.47024190
