 # applied field (T), theta (degree), phi (degree), abs [muB/unitcell], abs [T]
       0.00000000       0.00000000       0.00000000      43.30624891       1.45761622
       0.10000000       0.22623003     360.00000000      43.30624823       1.45761620
       0.20000000       0.45246023     360.00000000      43.30624619       1.45761613
       0.30000000       0.62231076     360.00000000      43.30624427       1.45761606
       0.40000000       0.84854160     360.00000000      43.30624003       1.45761592
       0.50000000       1.07477303     360.00000000      43.30623444       1.45761573
       0.60000000       1.30100521     360.00000000      43.30622751       1.45761550
       0.70000000       1.47085761     360.00000000      43.30622260       1.45761533
       0.80000000       1.69709147     360.00000000      43.30621348       1.45761503
       0.90000000       1.92332651     360.00000000      43.30620303       1.45761468
       1.00000000       2.14956288     360.00000000      43.30619124       1.45761428
       1.10000000       2.31941878     360.00000000      43.30618338       1.45761401
       1.20000000       2.54565786     360.00000000      43.30616946       1.45761355
       1.30000000       2.77189872     360.00000000      43.30615421       1.45761303
       1.40000000       2.99814150     360.00000000      43.30613766       1.45761248
       1.50000000       3.22438636     360.00000000      43.30611981       1.45761187
       1.60000000       3.39424905     360.00000000      43.30610830       1.45761149
       1.70000000       3.62049792     360.00000000      43.30608838       1.45761082
       1.80000000       3.84674931     360.00000000      43.30606719       1.45761010
       1.90000000       4.07300337     360.00000000      43.30604474       1.45760935
       2.00000000       4.24287327     360.00000000      43.30603048       1.45760887
       2.10000000       4.46913237     360.00000000      43.30600604       1.45760804
       2.20000000       4.69539458     360.00000000      43.30598037       1.45760718
       2.30000000       4.92166004     360.00000000      43.30595349       1.45760628
       2.40000000       5.09153880     360.00000000      43.30593661       1.45760571
       2.50000000       5.31781032     360.00000000      43.30590783       1.45760474
       2.60000000       5.54408554     360.00000000      43.30587788       1.45760373
       2.70000000       5.77036461     360.00000000      43.30584677       1.45760268
       2.80000000       5.99664768     360.00000000      43.30581453       1.45760160
       2.90000000       6.16654000     360.00000000      43.30579453       1.45760093
       3.00000000       6.39283044     360.00000000      43.30576053       1.45759978
       3.10000000       6.61912531     360.00000000      43.30572544       1.45759860
       3.20000000       6.84542477     360.00000000      43.30568928       1.45759738
       3.30000000       7.01532965     360.00000000      43.30566706       1.45759664
       3.40000000       7.24163750     360.00000000      43.30562927       1.45759536
       3.50000000       7.46795036     360.00000000      43.30559046       1.45759406
       3.60000000       7.69426841     360.00000000      43.30555067       1.45759272
       3.70000000       7.86418748     360.00000000      43.30552645       1.45759190
       3.80000000       8.09051493     360.00000000      43.30548517       1.45759051
       3.90000000       8.31684799     360.00000000      43.30544296       1.45758909
       4.00000000       8.54318681     360.00000000      43.30539986       1.45758764
       4.10000000       8.76953155     360.00000000      43.30535588       1.45758616
       4.20000000       8.93947094     360.00000000      43.30532943       1.45758527
       4.30000000       9.16582638     360.00000000      43.30528416       1.45758375
       4.40000000       9.39218817     360.00000000      43.30523809       1.45758220
       4.50000000       9.61855646     360.00000000      43.30519125       1.45758062
       4.60000000       9.78851372     360.00000000      43.30516337       1.45757968
       4.70000000      10.01489372     360.00000000      43.30511542       1.45757807
       4.80000000      10.24128065     360.00000000      43.30506677       1.45757643
       4.90000000      10.46767467     360.00000000      43.30501745       1.45757477
       5.00000000      10.69407593     360.00000000      43.30496750       1.45757309
       5.10000000      10.86405817     360.00000000      43.30493821       1.45757210
       5.20000000      11.09047243     360.00000000      43.30488740       1.45757039
       5.30000000      11.31689436     360.00000000      43.30483603       1.45756866
       5.40000000      11.54332411     360.00000000      43.30478415       1.45756692
       5.50000000      11.76976184     360.00000000      43.30473179       1.45756516
       5.60000000      11.93977165     360.00000000      43.30470161       1.45756414
       5.70000000      12.16622365     360.00000000      43.30464865       1.45756236
       5.80000000      12.39268407     360.00000000      43.30459531       1.45756056
       5.90000000      12.61915304     360.00000000      43.30454160       1.45755875
       6.00000000      12.78918642     360.00000000      43.30451114       1.45755773
       6.10000000      13.01567068     360.00000000      43.30445708       1.45755591
       6.20000000      13.24216391     360.00000000      43.30440276       1.45755408
       6.30000000      13.46866629     360.00000000      43.30434822       1.45755225
       6.40000000      13.69517795     360.00000000      43.30429350       1.45755040
       6.50000000      13.86524353     360.00000000      43.30426319       1.45754938
       6.60000000      14.09177175     360.00000000      43.30420842       1.45754754
       6.70000000      14.31830968     360.00000000      43.30415357       1.45754569
       6.80000000      14.54485748     360.00000000      43.30409869       1.45754385
       6.90000000      14.77141530     360.00000000      43.30404382       1.45754200
       7.00000000      14.94151563     360.00000000      43.30401430       1.45754101
       7.10000000      15.16809128     360.00000000      43.30395971       1.45753917
       7.20000000      15.39467737     360.00000000      43.30390523       1.45753734
       7.30000000      15.62127405     360.00000000      43.30385091       1.45753551
       7.40000000      15.84788148     360.00000000      43.30379679       1.45753369
       7.50000000      16.01801913     360.00000000      43.30376876       1.45753274
       7.60000000      16.24464564     360.00000000      43.30371527       1.45753094
       7.70000000      16.47128333     360.00000000      43.30366210       1.45752915
       7.80000000      16.69793233     360.00000000      43.30360930       1.45752738
       7.90000000      16.92459280     360.00000000      43.30355692       1.45752561
       8.00000000      17.09477031     360.00000000      43.30353108       1.45752474
       8.10000000      17.32145113     360.00000000      43.30347968       1.45752301
       8.20000000      17.54814384     360.00000000      43.30342883       1.45752130
       8.30000000      17.77484859     360.00000000      43.30337855       1.45751961
       8.40000000      18.00156553     360.00000000      43.30332891       1.45751794
       8.50000000      18.22829481     360.00000000      43.30327994       1.45751629
       8.60000000      18.39852398     360.00000000      43.30325775       1.45751554
       8.70000000      18.62527513     360.00000000      43.30321024       1.45751394
       8.80000000      18.85203904     360.00000000      43.30316354       1.45751237
       8.90000000      19.07881585     360.00000000      43.30311769       1.45751083
       9.00000000      19.30560572     360.00000000      43.30307276       1.45750932
       9.10000000      19.47588034     360.00000000      43.30305447       1.45750870
       9.20000000      19.70269333     360.00000000      43.30301139       1.45750725
       9.30000000      19.92951979     360.00000000      43.30296935       1.45750584
       9.40000000      20.15635987     360.00000000      43.30292841       1.45750446
       9.50000000      20.38321372     360.00000000      43.30288860       1.45750312
       9.60000000      20.61008150     360.00000000      43.30284999       1.45750182
       9.70000000      20.78041451     360.00000000      43.30283751       1.45750140
       9.80000000      21.00730690     360.00000000      43.30280126       1.45750018
       9.90000000      21.23421363     360.00000000      43.30276634       1.45749900
      10.00000000      21.46113483     360.00000000      43.30273281       1.45749787
      10.10000000      21.68807067     360.00000000      43.30270072       1.45749679
      10.20000000      21.91502128     360.00000000      43.30267012       1.45749576
      10.30000000      22.14198683     360.00000000      43.30264106       1.45749479
      10.40000000      22.31239307     360.00000000      43.30263695       1.45749465
      10.50000000      22.53938498     360.00000000      43.30261086       1.45749377
      10.60000000      22.76639223     360.00000000      43.30258646       1.45749295
      10.70000000      22.99341497     360.00000000      43.30256380       1.45749219
      10.80000000      23.22045333     360.00000000      43.30254294       1.45749148
      10.90000000      23.44750748     360.00000000      43.30252392       1.45749084
      11.00000000      23.67457756     360.00000000      43.30250681       1.45749027
      11.10000000      23.84506203     360.00000000      43.30251284       1.45749047
      11.20000000      24.07216021     360.00000000      43.30249933       1.45749002
      11.30000000      24.29927472     360.00000000      43.30248786       1.45748963
      11.40000000      24.52640572     360.00000000      43.30247850       1.45748931
      11.50000000      24.75355334     360.00000000      43.30247129       1.45748907
      11.60000000      24.98071774     360.00000000      43.30246630       1.45748890
      11.70000000      25.20789905     360.00000000      43.30246358       1.45748881
      11.80000000      25.43509744     360.00000000      43.30246318       1.45748880
      11.90000000      25.60567784     360.00000000      43.30248307       1.45748947
      12.00000000      25.83290631     360.00000000      43.30248700       1.45748960
      12.10000000      26.06015224     360.00000000      43.30249340       1.45748982
      12.20000000      26.28741578     360.00000000      43.30250233       1.45749012
      12.30000000      26.51469708     360.00000000      43.30251383       1.45749050
      12.40000000      26.74199629     360.00000000      43.30252798       1.45749098
      12.50000000      26.96931354     360.00000000      43.30254482       1.45749155
      12.60000000      27.19664899     360.00000000      43.30256440       1.45749221
      12.70000000      27.42400278     360.00000000      43.30258678       1.45749296
      12.80000000      27.65137505     360.00000000      43.30261202       1.45749381
      12.90000000      27.82208535     360.00000000      43.30265271       1.45749518
      13.00000000      28.04949016     360.00000000      43.30268319       1.45749620
      13.10000000      28.27691384     360.00000000      43.30271668       1.45749733
      13.20000000      28.50435654     360.00000000      43.30275322       1.45749856
      13.30000000      28.73181841     360.00000000      43.30279288       1.45749990
      13.40000000      28.95929959     360.00000000      43.30283570       1.45750134
      13.50000000      29.18680021     360.00000000      43.30288174       1.45750289
      13.60000000      29.41432043     360.00000000      43.30293104       1.45750455
      13.70000000      29.64186038     360.00000000      43.30298368       1.45750632
      13.80000000      29.86942021     360.00000000      43.30303969       1.45750820
      13.90000000      30.09700006     360.00000000      43.30309913       1.45751020
      14.00000000      30.32460007     360.00000000      43.30316205       1.45751232
      14.10000000      30.55222039     360.00000000      43.30322850       1.45751456
      14.20000000      30.77986114     360.00000000      43.30329854       1.45751692
      14.30000000      31.00752248     360.00000000      43.30337222       1.45751940
      14.40000000      31.23520455     360.00000000      43.30344958       1.45752200
      14.50000000      31.46290747     360.00000000      43.30353069       1.45752473
      14.60000000      31.69063141     360.00000000      43.30361558       1.45752759
      14.70000000      31.91837648     360.00000000      43.30370430       1.45753057
      14.80000000      32.14614284     360.00000000      43.30379692       1.45753369
      14.90000000      32.37393062     360.00000000      43.30389347       1.45753694
      15.00000000      32.60173995     360.00000000      43.30399400       1.45754032
      15.10000000      32.82957099     360.00000000      43.30409857       1.45754384
      15.20000000      33.05742386     360.00000000      43.30420722       1.45754750
      15.30000000      33.28529871     360.00000000      43.30431999       1.45755130
      15.40000000      33.51319566     360.00000000      43.30443694       1.45755523
      15.50000000      33.74111486     360.00000000      43.30455810       1.45755931
      15.60000000      33.96905644     360.00000000      43.30468353       1.45756353
      15.70000000      34.19702053     360.00000000      43.30481326       1.45756790
      15.80000000      34.42500728     360.00000000      43.30494735       1.45757241
      15.90000000      34.65301682     360.00000000      43.30508583       1.45757707
      16.00000000      34.88104928     360.00000000      43.30522875       1.45758188
      16.10000000      35.10910479     360.00000000      43.30537615       1.45758684
      16.20000000      35.33718349     360.00000000      43.30552806       1.45759196
      16.30000000      35.56528551     360.00000000      43.30568454       1.45759722
      16.40000000      35.79341099     360.00000000      43.30584561       1.45760265
      16.50000000      36.07843902     360.00000000      43.30603003       1.45760885
      16.60000000      36.30661797     360.00000000      43.30620152       1.45761462
      16.70000000      36.53482080     360.00000000      43.30637773       1.45762056
      16.80000000      36.76304764     360.00000000      43.30655870       1.45762665
      16.90000000      36.99129862     360.00000000      43.30674446       1.45763290
      17.00000000      37.21957386     360.00000000      43.30693505       1.45763931
      17.10000000      37.44787350     360.00000000      43.30713050       1.45764589
      17.20000000      37.67619765     360.00000000      43.30733085       1.45765264
      17.30000000      37.96147750     360.00000000      43.30756418       1.45766049
      17.40000000      38.18985753     360.00000000      43.30777558       1.45766761
      17.50000000      38.41826250     360.00000000      43.30799197       1.45767489
      17.60000000      38.64669251     360.00000000      43.30821338       1.45768234
      17.70000000      38.87514769     360.00000000      43.30843984       1.45768996
      17.80000000      39.16059359     360.00000000      43.30870570       1.45769891
      17.90000000      39.38910612     360.00000000      43.30894354       1.45770692
      18.00000000      39.61764422     360.00000000      43.30918651       1.45771509
      18.10000000      39.84620801     360.00000000      43.30943462       1.45772345
      18.20000000      40.07479759     360.00000000      43.30968789       1.45773197
      18.30000000      40.36041378     360.00000000      43.30998718       1.45774204
      18.40000000      40.58906212     360.00000000      43.31025209       1.45775096
      18.50000000      40.81773665     360.00000000      43.31052223       1.45776005
      18.60000000      41.10346043     360.00000000      43.31084253       1.45777083
      18.70000000      41.33219455     360.00000000      43.31112444       1.45778032
      18.80000000      41.56095522     360.00000000      43.31141161       1.45778999
      18.90000000      41.84678812     360.00000000      43.31175313       1.45780148
      19.00000000      42.07560920     360.00000000      43.31205214       1.45781155
      19.10000000      42.30445716     360.00000000      43.31235646       1.45782179
      19.20000000      42.59040065     360.00000000      43.31271933       1.45783400
      19.30000000      42.81930980     360.00000000      43.31303555       1.45784465
      19.40000000      43.04824617     360.00000000      43.31335707       1.45785547
      19.50000000      43.33430164     360.00000000      43.31374138       1.45786840
      19.60000000      43.56329994     360.00000000      43.31407482       1.45787963
      19.70000000      43.84943384     360.00000000      43.31447397       1.45789306
      19.80000000      44.07849456     360.00000000      43.31481931       1.45790469
      19.90000000      44.36470751     360.00000000      43.31523328       1.45791862
      20.00000000      44.59383112     360.00000000      43.31559050       1.45793064
      20.10000000      44.88012372     360.00000000      43.31601925       1.45794507
      20.20000000      45.10931067     360.00000000      43.31638830       1.45795749
      20.30000000      45.39568347     360.00000000      43.31683177       1.45797242
      20.40000000      45.62493419     360.00000000      43.31721258       1.45798524
      20.50000000      45.91138773     360.00000000      43.31767067       1.45800066
      20.60000000      46.14070262     360.00000000      43.31806315       1.45801387
      20.70000000      46.42723741     360.00000000      43.31853575       1.45802977
      20.80000000      46.71381774     360.00000000      43.31901636       1.45804595
      20.90000000      46.94323334     360.00000000      43.31942676       1.45805976
      21.00000000      47.22989563     360.00000000      43.31992165       1.45807642
      21.10000000      47.51660385     360.00000000      43.32042440       1.45809334
      21.20000000      47.74612097     360.00000000      43.32085239       1.45810775
      21.30000000      48.03291178     360.00000000      43.32136912       1.45812514
      21.40000000      48.31974885     360.00000000      43.32189354       1.45814279
      21.50000000      48.60663228     360.00000000      43.32242557       1.45816070
      21.60000000      48.83628839     360.00000000      43.32287673       1.45817588
      21.70000000      49.12325511     360.00000000      43.32342224       1.45819425
      21.80000000      49.41026846     360.00000000      43.32397514       1.45821285
      21.90000000      49.69732850     360.00000000      43.32453532       1.45823171
      22.00000000      49.98443530     360.00000000      43.32510270       1.45825081
      22.10000000      50.27158894     360.00000000      43.32567718       1.45827014
      22.20000000      50.55878945     360.00000000      43.32625866       1.45828971
      22.30000000      50.84603689     360.00000000      43.32684702       1.45830952
      22.40000000      51.13333130     360.00000000      43.32744215       1.45832955
      22.50000000      51.42067270     360.00000000      43.32804394       1.45834980
      22.60000000      51.70806110     360.00000000      43.32865226       1.45837028
      22.70000000      51.99549652     360.00000000      43.32926698       1.45839097
      22.80000000      52.28297896     360.00000000      43.32988798       1.45841187
      22.90000000      52.62790975     360.00000000      43.33062159       1.45843656
      23.00000000      52.91549605     360.00000000      43.33125595       1.45845792
