 # applied field (T), theta (degree), phi (degree), abs [muB/unitcell], abs [T]
       0.00000000       0.00000000       0.00000000      43.98127755       1.47028535
       0.10000000       0.45666032      45.00000000      43.98128196       1.47028550
       0.20000000       0.97031347      45.00000000      43.98129724       1.47028601
       0.30000000       1.42698330      45.00000000      43.98132028       1.47028678
       0.40000000       1.88366207      45.00000000      43.98135213       1.47028784
       0.50000000       2.39734669      45.00000000      43.98139789       1.47028937
       0.60000000       2.85405395      45.00000000      43.98144828       1.47029106
       0.70000000       3.36777788      45.00000000      43.98151460       1.47029327
       0.80000000       3.82452648      45.00000000      43.98158340       1.47029557
       0.90000000      90.00000000      45.00000000      43.93885914       1.46886731
       1.00000000      90.00000000      45.00000000      43.93892037       1.46886936
       1.10000000      90.00000000      45.00000000      43.93898159       1.46887140
       1.20000000      90.00000000      45.00000000      43.93904280       1.46887345
       1.30000000      90.00000000      45.00000000      43.93910401       1.46887550
       1.40000000      90.00000000      45.00000000      43.93916522       1.46887754
       1.50000000      90.00000000      45.00000000      43.93922642       1.46887959
       1.60000000      90.00000000      45.00000000      43.93928763       1.46888164
       1.70000000      90.00000000      45.00000000      43.93934882       1.46888368
       1.80000000      90.00000000      45.00000000      43.93941001       1.46888573
       1.90000000      90.00000000      45.00000000      43.93947120       1.46888777
       2.00000000      90.00000000      45.00000000      43.93953239       1.46888982
       2.10000000      90.00000000      45.00000000      43.93959357       1.46889186
       2.20000000      90.00000000      45.00000000      43.93965475       1.46889391
       2.30000000      90.00000000      45.00000000      43.93971592       1.46889595
       2.40000000      90.00000000      45.00000000      43.93977709       1.46889800
       2.50000000      90.00000000      45.00000000      43.93983825       1.46890004
       2.60000000      90.00000000      45.00000000      43.93989942       1.46890209
       2.70000000      90.00000000      45.00000000      43.93996058       1.46890413
       2.80000000      90.00000000      45.00000000      43.94002173       1.46890618
       2.90000000      90.00000000      45.00000000      43.94008288       1.46890822
       3.00000000      90.00000000      45.00000000      43.94014403       1.46891026
       3.10000000      90.00000000      45.00000000      43.94020517       1.46891231
       3.20000000      90.00000000      45.00000000      43.94026631       1.46891435
       3.30000000      90.00000000      45.00000000      43.94032745       1.46891640
       3.40000000      90.00000000      45.00000000      43.94038858       1.46891844
       3.50000000      90.00000000      45.00000000      43.94044971       1.46892048
       3.60000000      90.00000000      45.00000000      43.94051083       1.46892253
       3.70000000      90.00000000      45.00000000      43.94057195       1.46892457
       3.80000000      90.00000000      45.00000000      43.94063307       1.46892661
       3.90000000      90.00000000      45.00000000      43.94069419       1.46892866
       4.00000000      90.00000000      45.00000000      43.94075530       1.46893070
       4.10000000      90.00000000      45.00000000      43.94081640       1.46893274
       4.20000000      90.00000000      45.00000000      43.94087751       1.46893478
       4.30000000      90.00000000      45.00000000      43.94093860       1.46893683
       4.40000000      90.00000000      45.00000000      43.94099970       1.46893887
       4.50000000      90.00000000      45.00000000      43.94106079       1.46894091
       4.60000000      90.00000000      45.00000000      43.94112188       1.46894295
       4.70000000      90.00000000      45.00000000      43.94118296       1.46894500
       4.80000000      90.00000000      45.00000000      43.94124405       1.46894704
       4.90000000      90.00000000      45.00000000      43.94130512       1.46894908
       5.00000000      90.00000000      45.00000000      43.94136620       1.46895112
       5.10000000      90.00000000      45.00000000      43.94142727       1.46895316
       5.20000000      90.00000000      45.00000000      43.94148833       1.46895520
       5.30000000      90.00000000      45.00000000      43.94154939       1.46895725
       5.40000000      90.00000000      45.00000000      43.94161045       1.46895929
       5.50000000      90.00000000      45.00000000      43.94167151       1.46896133
       5.60000000      90.00000000      45.00000000      43.94173256       1.46896337
       5.70000000      90.00000000      45.00000000      43.94179361       1.46896541
       5.80000000      90.00000000      45.00000000      43.94185465       1.46896745
       5.90000000      90.00000000      45.00000000      43.94191570       1.46896949
       6.00000000      90.00000000      45.00000000      43.94197673       1.46897153
       6.10000000      90.00000000      45.00000000      43.94203777       1.46897357
       6.20000000      90.00000000      45.00000000      43.94209880       1.46897561
       6.30000000      90.00000000      45.00000000      43.94215982       1.46897765
       6.40000000      90.00000000      45.00000000      43.94222085       1.46897969
       6.50000000      90.00000000      45.00000000      43.94228187       1.46898173
       6.60000000      90.00000000      45.00000000      43.94234288       1.46898377
       6.70000000      90.00000000      45.00000000      43.94240390       1.46898581
       6.80000000      90.00000000      45.00000000      43.94246491       1.46898785
       6.90000000      90.00000000      45.00000000      43.94252591       1.46898989
       7.00000000      90.00000000      45.00000000      43.94258691       1.46899193
       7.10000000      90.00000000      45.00000000      43.94264791       1.46899397
       7.20000000      90.00000000      45.00000000      43.94270891       1.46899601
       7.30000000      90.00000000      45.00000000      43.94276990       1.46899805
       7.40000000      90.00000000      45.00000000      43.94283089       1.46900009
       7.50000000      90.00000000      45.00000000      43.94289187       1.46900212
       7.60000000      90.00000000      45.00000000      43.94295285       1.46900416
       7.70000000      90.00000000      45.00000000      43.94301383       1.46900620
       7.80000000      90.00000000      45.00000000      43.94307480       1.46900824
       7.90000000      90.00000000      45.00000000      43.94313577       1.46901028
       8.00000000      90.00000000      45.00000000      43.94319674       1.46901232
       8.10000000      90.00000000      45.00000000      43.94325771       1.46901435
       8.20000000      90.00000000      45.00000000      43.94331867       1.46901639
       8.30000000      90.00000000      45.00000000      43.94337962       1.46901843
       8.40000000      90.00000000      45.00000000      43.94344058       1.46902047
       8.50000000      90.00000000      45.00000000      43.94350153       1.46902251
       8.60000000      90.00000000      45.00000000      43.94356247       1.46902454
       8.70000000      90.00000000      45.00000000      43.94362342       1.46902658
       8.80000000      90.00000000      45.00000000      43.94368435       1.46902862
       8.90000000      90.00000000      45.00000000      43.94374529       1.46903065
       9.00000000      90.00000000      45.00000000      43.94380622       1.46903269
       9.10000000      90.00000000      45.00000000      43.94386715       1.46903473
       9.20000000      90.00000000      45.00000000      43.94392808       1.46903676
       9.30000000      90.00000000      45.00000000      43.94398900       1.46903880
       9.40000000      90.00000000      45.00000000      43.94404992       1.46904084
       9.50000000      90.00000000      45.00000000      43.94411084       1.46904287
       9.60000000      90.00000000      45.00000000      43.94417175       1.46904491
       9.70000000      90.00000000      45.00000000      43.94423266       1.46904695
       9.80000000      90.00000000      45.00000000      43.94429356       1.46904898
       9.90000000      90.00000000      45.00000000      43.94435447       1.46905102
      10.00000000      90.00000000      45.00000000      43.94441536       1.46905305
      10.10000000      90.00000000      45.00000000      43.94447626       1.46905509
      10.20000000      90.00000000      45.00000000      43.94453715       1.46905713
      10.30000000      90.00000000      45.00000000      43.94459804       1.46905916
      10.40000000      90.00000000      45.00000000      43.94465893       1.46906120
      10.50000000      90.00000000      45.00000000      43.94471981       1.46906323
      10.60000000      90.00000000      45.00000000      43.94478069       1.46906527
      10.70000000      90.00000000      45.00000000      43.94484156       1.46906730
      10.80000000      90.00000000      45.00000000      43.94490244       1.46906934
      10.90000000      90.00000000      45.00000000      43.94496330       1.46907137
      11.00000000      90.00000000      45.00000000      43.94502417       1.46907341
      11.10000000      90.00000000      45.00000000      43.94508503       1.46907544
      11.20000000      90.00000000      45.00000000      43.94514589       1.46907748
      11.30000000      90.00000000      45.00000000      43.94520675       1.46907951
      11.40000000      90.00000000      45.00000000      43.94526760       1.46908154
      11.50000000      90.00000000      45.00000000      43.94532845       1.46908358
      11.60000000      90.00000000      45.00000000      43.94538929       1.46908561
      11.70000000      90.00000000      45.00000000      43.94545014       1.46908765
      11.80000000      90.00000000      45.00000000      43.94551098       1.46908968
      11.90000000      90.00000000      45.00000000      43.94557181       1.46909171
      12.00000000      90.00000000      45.00000000      43.94563264       1.46909375
      12.10000000      90.00000000      45.00000000      43.94569347       1.46909578
      12.20000000      90.00000000      45.00000000      43.94575430       1.46909781
      12.30000000      90.00000000      45.00000000      43.94581512       1.46909985
      12.40000000      90.00000000      45.00000000      43.94587594       1.46910188
      12.50000000      90.00000000      45.00000000      43.94593676       1.46910391
      12.60000000      90.00000000      45.00000000      43.94599757       1.46910595
      12.70000000      90.00000000      45.00000000      43.94605838       1.46910798
      12.80000000      90.00000000      45.00000000      43.94611919       1.46911001
      12.90000000      90.00000000      45.00000000      43.94617999       1.46911205
      13.00000000      90.00000000      45.00000000      43.94624079       1.46911408
      13.10000000      90.00000000      45.00000000      43.94630159       1.46911611
      13.20000000      90.00000000      45.00000000      43.94636238       1.46911814
      13.30000000      90.00000000      45.00000000      43.94642318       1.46912018
      13.40000000      90.00000000      45.00000000      43.94648396       1.46912221
      13.50000000      90.00000000      45.00000000      43.94654475       1.46912424
      13.60000000      90.00000000      45.00000000      43.94660553       1.46912627
      13.70000000      90.00000000      45.00000000      43.94666631       1.46912830
      13.80000000      90.00000000      45.00000000      43.94672708       1.46913033
      13.90000000      90.00000000      45.00000000      43.94678785       1.46913237
      14.00000000      90.00000000      45.00000000      43.94684862       1.46913440
      14.10000000      90.00000000      45.00000000      43.94690939       1.46913643
      14.20000000      90.00000000      45.00000000      43.94697015       1.46913846
      14.30000000      90.00000000      45.00000000      43.94703091       1.46914049
      14.40000000      90.00000000      45.00000000      43.94709167       1.46914252
      14.50000000      90.00000000      45.00000000      43.94715242       1.46914455
      14.60000000      90.00000000      45.00000000      43.94721317       1.46914658
      14.70000000      90.00000000      45.00000000      43.94727391       1.46914862
      14.80000000      90.00000000      45.00000000      43.94733466       1.46915065
      14.90000000      90.00000000      45.00000000      43.94739540       1.46915268
      15.00000000      90.00000000      45.00000000      43.94745614       1.46915471
      15.10000000      90.00000000      45.00000000      43.94751687       1.46915674
      15.20000000      90.00000000      45.00000000      43.94757760       1.46915877
      15.30000000      90.00000000      45.00000000      43.94763833       1.46916080
      15.40000000      90.00000000      45.00000000      43.94769905       1.46916283
      15.50000000      90.00000000      45.00000000      43.94775978       1.46916486
      15.60000000      90.00000000      45.00000000      43.94782050       1.46916689
      15.70000000      90.00000000      45.00000000      43.94788121       1.46916892
      15.80000000      90.00000000      45.00000000      43.94794192       1.46917095
      15.90000000      90.00000000      45.00000000      43.94800263       1.46917298
      16.00000000      90.00000000      45.00000000      43.94806334       1.46917501
      16.10000000      90.00000000      45.00000000      43.94812404       1.46917704
      16.20000000      90.00000000      45.00000000      43.94818474       1.46917906
      16.30000000      90.00000000      45.00000000      43.94824544       1.46918109
      16.40000000      90.00000000      45.00000000      43.94830614       1.46918312
      16.50000000      90.00000000      45.00000000      43.94836683       1.46918515
      16.60000000      90.00000000      45.00000000      43.94842752       1.46918718
      16.70000000      90.00000000      45.00000000      43.94848820       1.46918921
      16.80000000      90.00000000      45.00000000      43.94854888       1.46919124
      16.90000000      90.00000000      45.00000000      43.94860956       1.46919327
      17.00000000      90.00000000      45.00000000      43.94867024       1.46919529
      17.10000000      90.00000000      45.00000000      43.94873091       1.46919732
      17.20000000      90.00000000      45.00000000      43.94879158       1.46919935
      17.30000000      90.00000000      45.00000000      43.94885225       1.46920138
      17.40000000      90.00000000      45.00000000      43.94891292       1.46920341
      17.50000000      90.00000000      45.00000000      43.94897358       1.46920543
      17.60000000      90.00000000      45.00000000      43.94903424       1.46920746
      17.70000000      90.00000000      45.00000000      43.94909489       1.46920949
      17.80000000      90.00000000      45.00000000      43.94915554       1.46921152
      17.90000000      90.00000000      45.00000000      43.94921619       1.46921355
      18.00000000      90.00000000      45.00000000      43.94927684       1.46921557
      18.10000000      90.00000000      45.00000000      43.94933748       1.46921760
      18.20000000      90.00000000      45.00000000      43.94939812       1.46921963
      18.30000000      90.00000000      45.00000000      43.94945876       1.46922165
      18.40000000      90.00000000      45.00000000      43.94951940       1.46922368
      18.50000000      90.00000000      45.00000000      43.94958003       1.46922571
      18.60000000      90.00000000      45.00000000      43.94964066       1.46922774
      18.70000000      90.00000000      45.00000000      43.94970128       1.46922976
      18.80000000      90.00000000      45.00000000      43.94976191       1.46923179
      18.90000000      90.00000000      45.00000000      43.94982253       1.46923382
      19.00000000      90.00000000      45.00000000      43.94988315       1.46923584
      19.10000000      90.00000000      45.00000000      43.94994376       1.46923787
      19.20000000      90.00000000      45.00000000      43.95000437       1.46923989
      19.30000000      90.00000000      45.00000000      43.95006498       1.46924192
      19.40000000      90.00000000      45.00000000      43.95012559       1.46924395
      19.50000000      90.00000000      45.00000000      43.95018619       1.46924597
      19.60000000      90.00000000      45.00000000      43.95024679       1.46924800
      19.70000000      90.00000000      45.00000000      43.95030739       1.46925002
      19.80000000      90.00000000      45.00000000      43.95036798       1.46925205
      19.90000000      90.00000000      45.00000000      43.95042857       1.46925407
      20.00000000      90.00000000      45.00000000      43.95048916       1.46925610
      20.10000000      90.00000000      45.00000000      43.95054975       1.46925813
      20.20000000      90.00000000      45.00000000      43.95061033       1.46926015
      20.30000000      90.00000000      45.00000000      43.95067091       1.46926218
      20.40000000      90.00000000      45.00000000      43.95073149       1.46926420
      20.50000000      90.00000000      45.00000000      43.95079206       1.46926623
      20.60000000      90.00000000      45.00000000      43.95085263       1.46926825
      20.70000000      90.00000000      45.00000000      43.95091320       1.46927028
      20.80000000      90.00000000      45.00000000      43.95097377       1.46927230
      20.90000000      90.00000000      45.00000000      43.95103433       1.46927433
      21.00000000      90.00000000      45.00000000      43.95109489       1.46927635
      21.10000000      90.00000000      45.00000000      43.95115545       1.46927837
      21.20000000      90.00000000      45.00000000      43.95121601       1.46928040
      21.30000000      90.00000000      45.00000000      43.95127656       1.46928242
      21.40000000      90.00000000      45.00000000      43.95133711       1.46928445
      21.50000000      90.00000000      45.00000000      43.95139765       1.46928647
      21.60000000      90.00000000      45.00000000      43.95145820       1.46928850
      21.70000000      90.00000000      45.00000000      43.95151874       1.46929052
      21.80000000      90.00000000      45.00000000      43.95157928       1.46929254
      21.90000000      90.00000000      45.00000000      43.95163981       1.46929457
      22.00000000      90.00000000      45.00000000      43.95170035       1.46929659
      22.10000000      90.00000000      45.00000000      43.95176088       1.46929861
      22.20000000      90.00000000      45.00000000      43.95182140       1.46930064
      22.30000000      90.00000000      45.00000000      43.95188193       1.46930266
      22.40000000      90.00000000      45.00000000      43.95194245       1.46930468
      22.50000000      90.00000000      45.00000000      43.95200297       1.46930671
      22.60000000      90.00000000      45.00000000      43.95206348       1.46930873
      22.70000000      90.00000000      45.00000000      43.95212400       1.46931075
      22.80000000      90.00000000      45.00000000      43.95218451       1.46931278
      22.90000000      90.00000000      45.00000000      43.95224502       1.46931480
      23.00000000      90.00000000      45.00000000      43.95230552       1.46931682
