 # applied field (T), theta (degree), phi (degree), abs for RE 3-4
     0.00000   177.27601   135.00000     0.09707   177.27601    45.00000     0.09707
     0.10000   176.76109   167.55957     0.09696   178.65901    45.00000     0.09697
     0.20000   175.57013   186.87557     0.09689   179.95720   225.00000     0.09690
     0.30000   174.10221   197.32750     0.09685   178.57408   225.00000     0.09686
     0.40000   172.52287   203.48403     0.09684   177.19307   225.00000     0.09685
     0.50000   170.80168   207.63839     0.09687   175.73617   225.00000     0.09688
     0.60000   169.15156   210.33629     0.09694   174.36378   225.00000     0.09693
     0.70000   167.49468   212.31166     0.09703   172.99755   225.00000     0.09700
     0.80000   165.74519   213.89200     0.09716   171.56046   225.00000     0.09711
     0.90000   164.00292   215.11997     0.09731   170.13288   225.00000     0.09725
     1.00000   162.36458   216.05317     0.09749   168.79307   225.00000     0.09740
     1.10000   160.64718   216.86279     0.09769   167.38729   225.00000     0.09758
     1.20000   158.85547   217.56886     0.09793   165.91846   225.00000     0.09780
     1.30000   157.17387   218.13229     0.09818   164.53957   225.00000     0.09803
     1.40000   155.42331   218.63875     0.09845   163.10074   225.00000     0.09829
     1.50000   153.69581   219.07425     0.09874   161.67832   225.00000     0.09857
     1.60000   151.99226   219.45280     0.09904   160.27281   225.00000     0.09887
     1.70000   150.22842   219.80088     0.09935   158.81303   225.00000     0.09919
     1.80000   148.49221   220.10708     0.09967   157.37250   225.00000     0.09953
     1.90000   146.70179   220.39107     0.09999   155.88169   225.00000     0.09989
     2.00000   144.94215   220.64343     0.10031   154.41193   225.00000     0.10026
     2.10000   143.13405   220.87918     0.10062   152.89533   225.00000     0.10066
     2.20000   141.35940   221.09052     0.10091   151.40085   225.00000     0.10105
     2.30000   139.54173   221.28916     0.10119   149.86214   225.00000     0.10146
     2.40000   137.75983   221.46860     0.10142   148.34571   225.00000     0.10187
     2.50000   135.86720   221.64475     0.10164   146.72297   225.00000     0.10231
     2.60000   133.94442   221.81035     0.10180   145.06069   225.00000     0.10274
     2.70000   132.06566   221.96077     0.10190   143.42135   225.00000     0.10317
     2.80000   130.09478   222.10805     0.10194   141.68065   225.00000     0.10360
     2.90000   128.04226   222.25148     0.10190   139.84065   225.00000     0.10404
     3.00000   125.98352   222.38661     0.10175   137.96188   225.00000     0.10445
     3.10000   123.80104   222.52189     0.10148   135.92452   225.00000     0.10487
     3.20000   121.57460   222.65308     0.10107   133.78716   225.00000     0.10527
     3.30000   119.26226   222.78391     0.10050   131.48871   225.00000     0.10564
     3.40000   116.83410   222.91758     0.09973   128.96739   225.00000     0.10599
     3.50000   114.27414   223.05726     0.09873   126.15910   225.00000     0.10631
     3.60000   111.48698   223.21203     0.09746   122.87988   225.00000     0.10661
     3.70000   108.42342   223.39190     0.09589   118.93655   225.00000     0.10687
     3.80000   104.96229   223.61840     0.09402   113.94462   225.00000     0.10714
     3.90000   100.61253   223.95713     0.09197   106.71968   225.00000     0.10757
     4.00000    90.00000   225.00000     0.09286    86.40280   225.00000     0.11051
     4.10000    90.00000   225.00000     0.09275    86.39938   225.00000     0.11038
     4.20000    90.00000   225.00000     0.09263    86.39595   225.00000     0.11026
     4.30000    90.00000   225.00000     0.09252    86.39251   225.00000     0.11014
     4.40000    90.00000   225.00000     0.09240    86.38907   225.00000     0.11002
     4.50000    90.00000   225.00000     0.09229    86.38562   225.00000     0.10989
     4.60000    90.00000   225.00000     0.09217    86.38216   225.00000     0.10977
     4.70000    90.00000   225.00000     0.09206    86.37869   225.00000     0.10965
     4.80000    90.00000   225.00000     0.09194    86.37522   225.00000     0.10953
     4.90000    90.00000   225.00000     0.09183    86.37174   225.00000     0.10940
     5.00000    90.00000   225.00000     0.09171    86.36825   225.00000     0.10928
     5.10000    90.00000   225.00000     0.09160    86.36476   225.00000     0.10916
     5.20000    90.00000   225.00000     0.09148    86.36126   225.00000     0.10904
     5.30000    90.00000   225.00000     0.09137    86.35775   225.00000     0.10892
     5.40000    90.00000   225.00000     0.09125    86.35423   225.00000     0.10879
     5.50000    90.00000   225.00000     0.09114    86.35071   225.00000     0.10867
     5.60000    90.00000   225.00000     0.09102    86.34718   225.00000     0.10855
     5.70000    90.00000   225.00000     0.09091    86.34364   225.00000     0.10843
     5.80000    90.00000   225.00000     0.09079    86.34009   225.00000     0.10831
     5.90000    90.00000   225.00000     0.09068    86.33654   225.00000     0.10818
     6.00000    90.00000   225.00000     0.09056    86.33298   225.00000     0.10806
     6.10000    90.00000   225.00000     0.09045    86.32941   225.00000     0.10794
     6.20000    90.00000   225.00000     0.09033    86.32583   225.00000     0.10782
     6.30000    90.00000   225.00000     0.09022    86.32225   225.00000     0.10769
     6.40000    90.00000   225.00000     0.09010    86.31866   225.00000     0.10757
     6.50000    90.00000   225.00000     0.08999    86.31506   225.00000     0.10745
     6.60000    90.00000   225.00000     0.08987    86.31145   225.00000     0.10733
     6.70000    90.00000   225.00000     0.08976    86.30784   225.00000     0.10721
     6.80000    90.00000   225.00000     0.08964    86.30422   225.00000     0.10708
     6.90000    90.00000   225.00000     0.08953    86.30059   225.00000     0.10696
     7.00000    90.00000   225.00000     0.08941    86.29695   225.00000     0.10684
     7.10000    90.00000   225.00000     0.08930    86.29330   225.00000     0.10672
     7.20000    90.00000   225.00000     0.08918    86.28965   225.00000     0.10660
     7.30000    90.00000   225.00000     0.08907    86.28599   225.00000     0.10647
     7.40000    90.00000   225.00000     0.08895    86.28232   225.00000     0.10635
     7.50000    90.00000   225.00000     0.08884    86.27864   225.00000     0.10623
     7.60000    90.00000   225.00000     0.08872    86.27495   225.00000     0.10611
     7.70000    90.00000   225.00000     0.08861    86.27126   225.00000     0.10599
     7.80000    90.00000   225.00000     0.08850    86.26756   225.00000     0.10586
     7.90000    90.00000   225.00000     0.08838    86.26385   225.00000     0.10574
     8.00000    90.00000   225.00000     0.08827    86.26013   225.00000     0.10562
     8.10000    90.00000   225.00000     0.08815    86.25641   225.00000     0.10550
     8.20000    90.00000   225.00000     0.08804    86.25267   225.00000     0.10538
     8.30000    90.00000   225.00000     0.08792    86.24893   225.00000     0.10526
     8.40000    90.00000   225.00000     0.08781    86.24518   225.00000     0.10513
     8.50000    90.00000   225.00000     0.08769    86.24142   225.00000     0.10501
     8.60000    90.00000   225.00000     0.08758    86.23766   225.00000     0.10489
     8.70000    90.00000   225.00000     0.08746    86.23388   225.00000     0.10477
     8.80000    90.00000   225.00000     0.08735    86.23010   225.00000     0.10465
     8.90000    90.00000   225.00000     0.08723    86.22631   225.00000     0.10452
     9.00000    90.00000   225.00000     0.08712    86.22251   225.00000     0.10440
     9.10000    90.00000   225.00000     0.08700    86.21870   225.00000     0.10428
     9.20000    90.00000   225.00000     0.08689    86.21488   225.00000     0.10416
     9.30000    90.00000   225.00000     0.08677    86.21106   225.00000     0.10404
     9.40000    90.00000   225.00000     0.08666    86.20723   225.00000     0.10392
     9.50000    90.00000   225.00000     0.08654    86.20338   225.00000     0.10379
     9.60000    90.00000   225.00000     0.08643    86.19953   225.00000     0.10367
     9.70000    90.00000   225.00000     0.08631    86.19568   225.00000     0.10355
     9.80000    90.00000   225.00000     0.08620    86.19181   225.00000     0.10343
     9.90000    90.00000   225.00000     0.08608    86.18793   225.00000     0.10331
    10.00000    90.00000   225.00000     0.08597    86.18405   225.00000     0.10319
    10.10000    90.00000   225.00000     0.08585    86.18015   225.00000     0.10306
    10.20000    90.00000   225.00000     0.08574    86.17625   225.00000     0.10294
    10.30000    90.00000   225.00000     0.08562    86.17234   225.00000     0.10282
    10.40000    90.00000   225.00000     0.08551    86.16842   225.00000     0.10270
    10.50000    90.00000   225.00000     0.08539    86.16450   225.00000     0.10258
    10.60000    90.00000   225.00000     0.08528    86.16056   225.00000     0.10246
    10.70000    90.00000   225.00000     0.08516    86.15661   225.00000     0.10233
    10.80000    90.00000   225.00000     0.08505    86.15266   225.00000     0.10221
    10.90000    90.00000   225.00000     0.08494    86.14869   225.00000     0.10209
    11.00000    90.00000   225.00000     0.08482    86.14472   225.00000     0.10197
    11.10000    90.00000   225.00000     0.08471    86.14074   225.00000     0.10185
    11.20000    90.00000   225.00000     0.08459    86.13675   225.00000     0.10173
    11.30000    90.00000   225.00000     0.08448    86.13275   225.00000     0.10161
    11.40000    90.00000   225.00000     0.08436    86.12874   225.00000     0.10148
    11.50000    90.00000   225.00000     0.08425    86.12473   225.00000     0.10136
    11.60000    90.00000   225.00000     0.08413    86.12070   225.00000     0.10124
    11.70000    90.00000   225.00000     0.08402    86.11666   225.00000     0.10112
    11.80000    90.00000   225.00000     0.08390    86.11262   225.00000     0.10100
    11.90000    90.00000   225.00000     0.08379    86.10856   225.00000     0.10088
    12.00000    90.00000   225.00000     0.08367    86.10450   225.00000     0.10076
    12.10000    90.00000   225.00000     0.08356    86.10043   225.00000     0.10063
    12.20000    90.00000   225.00000     0.08344    86.09635   225.00000     0.10051
    12.30000    90.00000   225.00000     0.08333    86.09226   225.00000     0.10039
    12.40000    90.00000   225.00000     0.08322    86.08816   225.00000     0.10027
    12.50000    90.00000   225.00000     0.08310    86.08405   225.00000     0.10015
    12.60000    90.00000   225.00000     0.08299    86.07993   225.00000     0.10003
    12.70000    90.00000   225.00000     0.08287    86.07580   225.00000     0.09991
    12.80000    90.00000   225.00000     0.08276    86.07166   225.00000     0.09978
    12.90000    90.00000   225.00000     0.08264    86.06751   225.00000     0.09966
    13.00000    90.00000   225.00000     0.08253    86.06335   225.00000     0.09954
    13.10000    90.00000   225.00000     0.08241    86.05919   225.00000     0.09942
    13.20000    90.00000   225.00000     0.08230    86.05501   225.00000     0.09930
    13.30000    90.00000   225.00000     0.08218    86.05082   225.00000     0.09918
    13.40000    90.00000   225.00000     0.08207    86.04663   225.00000     0.09906
    13.50000    90.00000   225.00000     0.08196    86.04242   225.00000     0.09894
    13.60000    90.00000   225.00000     0.08184    86.03821   225.00000     0.09881
    13.70000    90.00000   225.00000     0.08173    86.03398   225.00000     0.09869
    13.80000    90.00000   225.00000     0.08161    86.02974   225.00000     0.09857
    13.90000    90.00000   225.00000     0.08150    86.02550   225.00000     0.09845
    14.00000    90.00000   225.00000     0.08138    86.02124   225.00000     0.09833
    14.10000    90.00000   225.00000     0.08127    86.01698   225.00000     0.09821
    14.20000    90.00000   225.00000     0.08115    86.01270   225.00000     0.09809
    14.30000    90.00000   225.00000     0.08104    86.00842   225.00000     0.09797
    14.40000    90.00000   225.00000     0.08093    86.00412   225.00000     0.09784
    14.50000    90.00000   225.00000     0.08081    85.99982   225.00000     0.09772
    14.60000    90.00000   225.00000     0.08070    85.99550   225.00000     0.09760
    14.70000    90.00000   225.00000     0.08058    85.99118   225.00000     0.09748
    14.80000    90.00000   225.00000     0.08047    85.98684   225.00000     0.09736
    14.90000    90.00000   225.00000     0.08035    85.98250   225.00000     0.09724
    15.00000    90.00000   225.00000     0.08024    85.97814   225.00000     0.09712
    15.10000    90.00000   225.00000     0.08012    85.97377   225.00000     0.09700
    15.20000    90.00000   225.00000     0.08001    85.96940   225.00000     0.09688
    15.30000    90.00000   225.00000     0.07990    85.96501   225.00000     0.09675
    15.40000    90.00000   225.00000     0.07978    85.96061   225.00000     0.09663
    15.50000    90.00000   225.00000     0.07967    85.95620   225.00000     0.09651
    15.60000    90.00000   225.00000     0.07955    85.95179   225.00000     0.09639
    15.70000    90.00000   225.00000     0.07944    85.94736   225.00000     0.09627
    15.80000    90.00000   225.00000     0.07932    85.94292   225.00000     0.09615
    15.90000    90.00000   225.00000     0.07921    85.93847   225.00000     0.09603
    16.00000    90.00000   225.00000     0.07910    85.93401   225.00000     0.09591
    16.10000    90.00000   225.00000     0.07898    85.92953   225.00000     0.09579
    16.20000    90.00000   225.00000     0.07887    85.92505   225.00000     0.09567
    16.30000    90.00000   225.00000     0.07875    85.92056   225.00000     0.09554
    16.40000    90.00000   225.00000     0.07864    85.91605   225.00000     0.09542
    16.50000    90.00000   225.00000     0.07852    85.91154   225.00000     0.09530
    16.60000    90.00000   225.00000     0.07841    85.90701   225.00000     0.09518
    16.70000    90.00000   225.00000     0.07829    85.90248   225.00000     0.09506
    16.80000    90.00000   225.00000     0.07818    85.89793   225.00000     0.09494
    16.90000    90.00000   225.00000     0.07807    85.89337   225.00000     0.09482
    17.00000    90.00000   225.00000     0.07795    85.88880   225.00000     0.09470
    17.10000    90.00000   225.00000     0.07784    85.88422   225.00000     0.09458
    17.20000    90.00000   225.00000     0.07772    85.87963   225.00000     0.09446
    17.30000    90.00000   225.00000     0.07761    85.87502   225.00000     0.09434
    17.40000    90.00000   225.00000     0.07749    85.87041   225.00000     0.09422
    17.50000    90.00000   225.00000     0.07738    85.86578   225.00000     0.09409
    17.60000    90.00000   225.00000     0.07727    85.86115   225.00000     0.09397
    17.70000    90.00000   225.00000     0.07715    85.85650   225.00000     0.09385
    17.80000    90.00000   225.00000     0.07704    85.85184   225.00000     0.09373
    17.90000    90.00000   225.00000     0.07692    85.84717   225.00000     0.09361
    18.00000    90.00000   225.00000     0.07681    85.84249   225.00000     0.09349
    18.10000    90.00000   225.00000     0.07670    85.83779   225.00000     0.09337
    18.20000    90.00000   225.00000     0.07658    85.83309   225.00000     0.09325
    18.30000    90.00000   225.00000     0.07647    85.82837   225.00000     0.09313
    18.40000    90.00000   225.00000     0.07635    85.82364   225.00000     0.09301
    18.50000    90.00000   225.00000     0.07624    85.81890   225.00000     0.09289
    18.60000    90.00000   225.00000     0.07612    85.81415   225.00000     0.09277
    18.70000    90.00000   225.00000     0.07601    85.80938   225.00000     0.09265
    18.80000    90.00000   225.00000     0.07590    85.80461   225.00000     0.09252
    18.90000    90.00000   225.00000     0.07578    85.79982   225.00000     0.09240
    19.00000    90.00000   225.00000     0.07567    85.79502   225.00000     0.09228
    19.10000    90.00000   225.00000     0.07555    85.79021   225.00000     0.09216
    19.20000    90.00000   225.00000     0.07544    85.78538   225.00000     0.09204
    19.30000    90.00000   225.00000     0.07533    85.78055   225.00000     0.09192
    19.40000    90.00000   225.00000     0.07521    85.77570   225.00000     0.09180
    19.50000    90.00000   225.00000     0.07510    85.77084   225.00000     0.09168
    19.60000    90.00000   225.00000     0.07498    85.76597   225.00000     0.09156
    19.70000    90.00000   225.00000     0.07487    85.76108   225.00000     0.09144
    19.80000    90.00000   225.00000     0.07476    85.75619   225.00000     0.09132
    19.90000    90.00000   225.00000     0.07464    85.75128   225.00000     0.09120
    20.00000    90.00000   225.00000     0.07453    85.74636   225.00000     0.09108
    20.10000    90.00000   225.00000     0.07441    85.74142   225.00000     0.09096
    20.20000    90.00000   225.00000     0.07430    85.73648   225.00000     0.09084
    20.30000    90.00000   225.00000     0.07419    85.73152   225.00000     0.09072
    20.40000    90.00000   225.00000     0.07407    85.72654   225.00000     0.09060
    20.50000    90.00000   225.00000     0.07396    85.72156   225.00000     0.09048
    20.60000    90.00000   225.00000     0.07384    85.71656   225.00000     0.09035
    20.70000    90.00000   225.00000     0.07373    85.71155   225.00000     0.09023
    20.80000    90.00000   225.00000     0.07362    85.70653   225.00000     0.09011
    20.90000    90.00000   225.00000     0.07350    85.70150   225.00000     0.08999
    21.00000    90.00000   225.00000     0.07339    85.69645   225.00000     0.08987
    21.10000    90.00000   225.00000     0.07327    85.69139   225.00000     0.08975
    21.20000    90.00000   225.00000     0.07316    85.68631   225.00000     0.08963
    21.30000    90.00000   225.00000     0.07305    85.68123   225.00000     0.08951
    21.40000    90.00000   225.00000     0.07293    85.67613   225.00000     0.08939
    21.50000    90.00000   225.00000     0.07282    85.67102   225.00000     0.08927
    21.60000    90.00000   225.00000     0.07270    85.66589   225.00000     0.08915
    21.70000    90.00000   225.00000     0.07259    85.66075   225.00000     0.08903
    21.80000    90.00000   225.00000     0.07248    85.65560   225.00000     0.08891
    21.90000    90.00000   225.00000     0.07236    85.65043   225.00000     0.08879
    22.00000    90.00000   225.00000     0.07225    85.64525   225.00000     0.08867
    22.10000    90.00000   225.00000     0.07213    85.64006   225.00000     0.08855
    22.20000    90.00000   225.00000     0.07202    85.63485   225.00000     0.08843
    22.30000    90.00000   225.00000     0.07191    85.62963   225.00000     0.08831
    22.40000    90.00000   225.00000     0.07179    85.62440   225.00000     0.08819
    22.50000    90.00000   225.00000     0.07168    85.61915   225.00000     0.08807
    22.60000    90.00000   225.00000     0.07157    85.61389   225.00000     0.08795
    22.70000    90.00000   225.00000     0.07145    85.60862   225.00000     0.08783
    22.80000    90.00000   225.00000     0.07134    85.60333   225.00000     0.08771
    22.90000    90.00000   225.00000     0.07122    85.59803   225.00000     0.08759
    23.00000    90.00000   225.00000     0.07111    85.59271   225.00000     0.08747
    23.10000    90.00000   225.00000     0.07100    85.58738   225.00000     0.08735
    23.20000    90.00000   225.00000     0.07088    85.58204   225.00000     0.08723
    23.30000    90.00000   225.00000     0.07077    85.57668   225.00000     0.08711
