 # applied field (T), theta (degree), phi (degree), abs for RE 1-2
     0.00000     0.40003   315.00000     3.45548     0.40003   225.00000     3.45548
     0.10000     1.33162   346.59801     3.45568     0.77372   340.56228     3.45571
     0.20000     2.33187   351.75307     3.45576     1.75812   352.41418     3.45581
     0.30000     3.33973   353.80527     3.45571     2.76439   355.71219     3.45578
     0.40000     4.35012   354.90458     3.45553     3.77586   357.24873     3.45560
     0.50000     5.41501   355.61764     3.45520     4.84326   358.17296     3.45526
     0.60000     6.42789   356.07575     3.45477     5.85946   358.73981     3.45479
     0.70000     7.44176   356.40876     3.45421     6.87744   359.13983     3.45416
     0.80000     8.50996   356.67316     3.45349     7.95072   359.45093     3.45335
     0.90000     9.57940   356.87826     3.45264     9.02598   359.68873     3.45236
     1.00000    10.59677   357.03451     3.45172    10.04954   359.86813     3.45127
     1.10000    11.66898   357.16925     3.45063    11.12890     0.02193     3.44996
     1.20000    12.79640   357.28615     3.44935    12.26451     0.15491     3.44840
     1.30000    13.87206   357.37959     3.44802    13.34858     0.26111     3.44674
     1.40000    15.00340   357.46304     3.44650    14.48936     0.35610     3.44481
     1.50000    16.13695   357.53458     3.44486    15.63294     0.43779     3.44271
     1.60000    17.27286   357.59653     3.44312    16.77945     0.50891     3.44043
     1.70000    18.46539   357.65307     3.44118    17.98367     0.57425     3.43785
     1.80000    19.66079   357.70257     3.43913    19.19131     0.63196     3.43508
     1.90000    20.85918   357.74626     3.43699    20.40251     0.68338     3.43212
     2.00000    22.11523   357.78671     3.43464    21.67253     0.73155     3.42885
     2.10000    23.37479   357.82270     3.43221    22.94666     0.77496     3.42539
     2.20000    24.69285   357.85622     3.42958    24.28055     0.81597     3.42160
     2.30000    26.07000   357.88744     3.42675    25.67490     0.85478     3.41745
     2.40000    27.45161   357.91546     3.42385    27.07447     0.89021     3.41313
     2.50000    28.89317   357.94171     3.42077    28.53557     0.92402     3.40847
     2.60000    30.45096   357.96716     3.41739    30.11541     0.95749     3.40327
     2.70000    32.01452   357.99016     3.41396    31.70217     0.98837     3.39792
     2.80000    33.63992   358.01177     3.41037    33.35289     1.01805     3.39225
     2.90000    35.38405   358.03277     3.40652    35.12567     1.04759     3.38609
     3.00000    37.19167   358.05253     3.40254    36.96468     1.07608     3.37967
     3.10000    39.12008   358.07174     3.39833    38.92860     1.10450     3.37284
     3.20000    41.22754   358.09092     3.39380    41.07733     1.13363     3.36547
     3.30000    43.45869   358.10956     3.38911    43.35500     1.16270     3.35788
     3.40000    45.92971   358.12861     3.38407    45.88080     1.19318     3.34984
     3.50000    48.64312   358.14806     3.37876    48.65795     1.22501     3.34161
     3.60000    51.71746   358.16873     3.37304    51.80811     1.25945     3.33322
     3.70000    55.21481   358.19107     3.36696    55.39459     1.29696     3.32512
     3.80000    59.49139   358.21743     3.36018    59.78047     1.34081     3.31754
     3.90000    65.08706   358.25149     3.35236    65.51129     1.39500     3.31171
     4.00000    73.50324   358.30403     3.34276    74.09310     1.46918     3.31130
     4.10000    89.64046   358.41562     3.33100    90.35954     1.58438     3.33100
     4.20000    89.64047   358.41568     3.33112    90.35953     1.58432     3.33112
     4.30000    89.64048   358.41574     3.33124    90.35952     1.58426     3.33124
     4.40000    89.64050   358.41580     3.33135    90.35950     1.58420     3.33135
     4.50000    89.64051   358.41586     3.33147    90.35949     1.58414     3.33147
     4.60000    89.64052   358.41591     3.33159    90.35948     1.58409     3.33159
     4.70000    89.64054   358.41597     3.33170    90.35946     1.58403     3.33170
     4.80000    89.64055   358.41603     3.33182    90.35945     1.58397     3.33182
     4.90000    89.64056   358.41609     3.33193    90.35944     1.58391     3.33193
     5.00000    89.64057   358.41615     3.33205    90.35943     1.58385     3.33205
     5.10000    89.64059   358.41621     3.33217    90.35941     1.58379     3.33217
     5.20000    89.64060   358.41627     3.33228    90.35940     1.58373     3.33228
     5.30000    89.64061   358.41633     3.33240    90.35939     1.58367     3.33240
     5.40000    89.64063   358.41639     3.33252    90.35937     1.58361     3.33252
     5.50000    89.64064   358.41645     3.33263    90.35936     1.58355     3.33263
     5.60000    89.64065   358.41651     3.33275    90.35935     1.58349     3.33275
     5.70000    89.64066   358.41657     3.33286    90.35934     1.58343     3.33286
     5.80000    89.64068   358.41663     3.33298    90.35932     1.58337     3.33298
     5.90000    89.64069   358.41669     3.33309    90.35931     1.58331     3.33309
     6.00000    89.64070   358.41675     3.33321    90.35930     1.58325     3.33321
     6.10000    89.64072   358.41681     3.33333    90.35928     1.58319     3.33333
     6.20000    89.64073   358.41687     3.33344    90.35927     1.58313     3.33344
     6.30000    89.64074   358.41693     3.33356    90.35926     1.58307     3.33356
     6.40000    89.64075   358.41699     3.33367    90.35925     1.58301     3.33367
     6.50000    89.64077   358.41705     3.33379    90.35923     1.58295     3.33379
     6.60000    89.64078   358.41711     3.33391    90.35922     1.58289     3.33391
     6.70000    89.64079   358.41716     3.33402    90.35921     1.58284     3.33402
     6.80000    89.64081   358.41722     3.33414    90.35919     1.58278     3.33414
     6.90000    89.64082   358.41728     3.33425    90.35918     1.58272     3.33425
     7.00000    89.64083   358.41734     3.33437    90.35917     1.58266     3.33437
     7.10000    89.64084   358.41740     3.33448    90.35916     1.58260     3.33448
     7.20000    89.64086   358.41746     3.33460    90.35914     1.58254     3.33460
     7.30000    89.64087   358.41752     3.33471    90.35913     1.58248     3.33471
     7.40000    89.64088   358.41758     3.33483    90.35912     1.58242     3.33483
     7.50000    89.64089   358.41764     3.33494    90.35911     1.58236     3.33494
     7.60000    89.64091   358.41770     3.33506    90.35909     1.58230     3.33506
     7.70000    89.64092   358.41776     3.33518    90.35908     1.58224     3.33518
     7.80000    89.64093   358.41782     3.33529    90.35907     1.58218     3.33529
     7.90000    89.64095   358.41788     3.33541    90.35905     1.58212     3.33541
     8.00000    89.64096   358.41794     3.33552    90.35904     1.58206     3.33552
     8.10000    89.64097   358.41800     3.33564    90.35903     1.58200     3.33564
     8.20000    89.64098   358.41806     3.33575    90.35902     1.58194     3.33575
     8.30000    89.64100   358.41811     3.33587    90.35900     1.58189     3.33587
     8.40000    89.64101   358.41817     3.33598    90.35899     1.58183     3.33598
     8.50000    89.64102   358.41823     3.33610    90.35898     1.58177     3.33610
     8.60000    89.64103   358.41829     3.33621    90.35897     1.58171     3.33621
     8.70000    89.64105   358.41835     3.33633    90.35895     1.58165     3.33633
     8.80000    89.64106   358.41841     3.33644    90.35894     1.58159     3.33644
     8.90000    89.64107   358.41847     3.33656    90.35893     1.58153     3.33656
     9.00000    89.64109   358.41853     3.33667    90.35891     1.58147     3.33667
     9.10000    89.64110   358.41859     3.33679    90.35890     1.58141     3.33679
     9.20000    89.64111   358.41865     3.33690    90.35889     1.58135     3.33690
     9.30000    89.64112   358.41871     3.33702    90.35888     1.58129     3.33702
     9.40000    89.64114   358.41877     3.33713    90.35886     1.58123     3.33713
     9.50000    89.64115   358.41882     3.33725    90.35885     1.58118     3.33725
     9.60000    89.64116   358.41888     3.33736    90.35884     1.58112     3.33736
     9.70000    89.64117   358.41894     3.33748    90.35883     1.58106     3.33748
     9.80000    89.64119   358.41900     3.33759    90.35881     1.58100     3.33759
     9.90000    89.64120   358.41906     3.33771    90.35880     1.58094     3.33771
    10.00000    89.64121   358.41912     3.33782    90.35879     1.58088     3.33782
    10.10000    89.64123   358.41918     3.33793    90.35877     1.58082     3.33793
    10.20000    89.64124   358.41924     3.33805    90.35876     1.58076     3.33805
    10.30000    89.64125   358.41930     3.33816    90.35875     1.58070     3.33816
    10.40000    89.64126   358.41936     3.33828    90.35874     1.58064     3.33828
    10.50000    89.64128   358.41942     3.33839    90.35872     1.58058     3.33839
    10.60000    89.64129   358.41947     3.33851    90.35871     1.58053     3.33851
    10.70000    89.64130   358.41953     3.33862    90.35870     1.58047     3.33862
    10.80000    89.64131   358.41959     3.33874    90.35869     1.58041     3.33874
    10.90000    89.64133   358.41965     3.33885    90.35867     1.58035     3.33885
    11.00000    89.64134   358.41971     3.33896    90.35866     1.58029     3.33896
    11.10000    89.64135   358.41977     3.33908    90.35865     1.58023     3.33908
    11.20000    89.64137   358.41983     3.33919    90.35863     1.58017     3.33919
    11.30000    89.64138   358.41989     3.33931    90.35862     1.58011     3.33931
    11.40000    89.64139   358.41995     3.33942    90.35861     1.58005     3.33942
    11.50000    89.64140   358.42001     3.33954    90.35860     1.57999     3.33954
    11.60000    89.64142   358.42006     3.33965    90.35858     1.57994     3.33965
    11.70000    89.64143   358.42012     3.33976    90.35857     1.57988     3.33976
    11.80000    89.64144   358.42018     3.33988    90.35856     1.57982     3.33988
    11.90000    89.64145   358.42024     3.33999    90.35855     1.57976     3.33999
    12.00000    89.64147   358.42030     3.34011    90.35853     1.57970     3.34011
    12.10000    89.64148   358.42036     3.34022    90.35852     1.57964     3.34022
    12.20000    89.64149   358.42042     3.34033    90.35851     1.57958     3.34033
    12.30000    89.64151   358.42048     3.34045    90.35849     1.57952     3.34045
    12.40000    89.64152   358.42054     3.34056    90.35848     1.57946     3.34056
    12.50000    89.64153   358.42059     3.34068    90.35847     1.57941     3.34068
    12.60000    89.64154   358.42065     3.34079    90.35846     1.57935     3.34079
    12.70000    89.64156   358.42071     3.34090    90.35844     1.57929     3.34090
    12.80000    89.64157   358.42077     3.34102    90.35843     1.57923     3.34102
    12.90000    89.64158   358.42083     3.34113    90.35842     1.57917     3.34113
    13.00000    89.64159   358.42089     3.34124    90.35841     1.57911     3.34124
    13.10000    89.64161   358.42095     3.34136    90.35839     1.57905     3.34136
    13.20000    89.64162   358.42101     3.34147    90.35838     1.57899     3.34147
    13.30000    89.64163   358.42106     3.34158    90.35837     1.57894     3.34158
    13.40000    89.64164   358.42112     3.34170    90.35836     1.57888     3.34170
    13.50000    89.64166   358.42118     3.34181    90.35834     1.57882     3.34181
    13.60000    89.64167   358.42124     3.34193    90.35833     1.57876     3.34193
    13.70000    89.64168   358.42130     3.34204    90.35832     1.57870     3.34204
    13.80000    89.64169   358.42136     3.34215    90.35831     1.57864     3.34215
    13.90000    89.64171   358.42142     3.34227    90.35829     1.57858     3.34227
    14.00000    89.64172   358.42148     3.34238    90.35828     1.57852     3.34238
    14.10000    89.64173   358.42153     3.34249    90.35827     1.57847     3.34249
    14.20000    89.64175   358.42159     3.34261    90.35825     1.57841     3.34261
    14.30000    89.64176   358.42165     3.34272    90.35824     1.57835     3.34272
    14.40000    89.64177   358.42171     3.34283    90.35823     1.57829     3.34283
    14.50000    89.64178   358.42177     3.34295    90.35822     1.57823     3.34295
    14.60000    89.64180   358.42183     3.34306    90.35820     1.57817     3.34306
    14.70000    89.64181   358.42189     3.34317    90.35819     1.57811     3.34317
    14.80000    89.64182   358.42194     3.34328    90.35818     1.57806     3.34328
    14.90000    89.64183   358.42200     3.34340    90.35817     1.57800     3.34340
    15.00000    89.64185   358.42206     3.34351    90.35815     1.57794     3.34351
    15.10000    89.64186   358.42212     3.34362    90.35814     1.57788     3.34362
    15.20000    89.64187   358.42218     3.34374    90.35813     1.57782     3.34374
    15.30000    89.64188   358.42224     3.34385    90.35812     1.57776     3.34385
    15.40000    89.64190   358.42230     3.34396    90.35810     1.57770     3.34396
    15.50000    89.64191   358.42235     3.34408    90.35809     1.57765     3.34408
    15.60000    89.64192   358.42241     3.34419    90.35808     1.57759     3.34419
    15.70000    89.64193   358.42247     3.34430    90.35807     1.57753     3.34430
    15.80000    89.64195   358.42253     3.34441    90.35805     1.57747     3.34441
    15.90000    89.64196   358.42259     3.34453    90.35804     1.57741     3.34453
    16.00000    89.64197   358.42265     3.34464    90.35803     1.57735     3.34464
    16.10000    89.64199   358.42270     3.34475    90.35801     1.57730     3.34475
    16.20000    89.64200   358.42276     3.34487    90.35800     1.57724     3.34487
    16.30000    89.64201   358.42282     3.34498    90.35799     1.57718     3.34498
    16.40000    89.64202   358.42288     3.34509    90.35798     1.57712     3.34509
    16.50000    89.64204   358.42294     3.34520    90.35796     1.57706     3.34520
    16.60000    89.64205   358.42300     3.34532    90.35795     1.57700     3.34532
    16.70000    89.64206   358.42306     3.34543    90.35794     1.57694     3.34543
    16.80000    89.64207   358.42311     3.34554    90.35793     1.57689     3.34554
    16.90000    89.64209   358.42317     3.34565    90.35791     1.57683     3.34565
    17.00000    89.64210   358.42323     3.34577    90.35790     1.57677     3.34577
    17.10000    89.64211   358.42329     3.34588    90.35789     1.57671     3.34588
    17.20000    89.64212   358.42335     3.34599    90.35788     1.57665     3.34599
    17.30000    89.64214   358.42341     3.34610    90.35786     1.57659     3.34610
    17.40000    89.64215   358.42346     3.34622    90.35785     1.57654     3.34622
    17.50000    89.64216   358.42352     3.34633    90.35784     1.57648     3.34633
    17.60000    89.64217   358.42358     3.34644    90.35783     1.57642     3.34644
    17.70000    89.64219   358.42364     3.34655    90.35781     1.57636     3.34655
    17.80000    89.64220   358.42370     3.34666    90.35780     1.57630     3.34666
    17.90000    89.64221   358.42376     3.34678    90.35779     1.57624     3.34678
    18.00000    89.64222   358.42381     3.34689    90.35778     1.57619     3.34689
    18.10000    89.64224   358.42387     3.34700    90.35776     1.57613     3.34700
    18.20000    89.64225   358.42393     3.34711    90.35775     1.57607     3.34711
    18.30000    89.64226   358.42399     3.34722    90.35774     1.57601     3.34722
    18.40000    89.64227   358.42405     3.34734    90.35773     1.57595     3.34734
    18.50000    89.64229   358.42410     3.34745    90.35771     1.57590     3.34745
    18.60000    89.64230   358.42416     3.34756    90.35770     1.57584     3.34756
    18.70000    89.64231   358.42422     3.34767    90.35769     1.57578     3.34767
    18.80000    89.64232   358.42428     3.34778    90.35768     1.57572     3.34778
    18.90000    89.64234   358.42434     3.34790    90.35766     1.57566     3.34790
    19.00000    89.64235   358.42440     3.34801    90.35765     1.57560     3.34801
    19.10000    89.64236   358.42445     3.34812    90.35764     1.57555     3.34812
    19.20000    89.64237   358.42451     3.34823    90.35763     1.57549     3.34823
    19.30000    89.64239   358.42457     3.34834    90.35761     1.57543     3.34834
    19.40000    89.64240   358.42463     3.34846    90.35760     1.57537     3.34846
    19.50000    89.64241   358.42469     3.34857    90.35759     1.57531     3.34857
    19.60000    89.64242   358.42474     3.34868    90.35758     1.57526     3.34868
    19.70000    89.64244   358.42480     3.34879    90.35756     1.57520     3.34879
    19.80000    89.64245   358.42486     3.34890    90.35755     1.57514     3.34890
    19.90000    89.64246   358.42492     3.34901    90.35754     1.57508     3.34901
    20.00000    89.64247   358.42498     3.34913    90.35753     1.57502     3.34913
    20.10000    89.64249   358.42503     3.34924    90.35751     1.57497     3.34924
    20.20000    89.64250   358.42509     3.34935    90.35750     1.57491     3.34935
    20.30000    89.64251   358.42515     3.34946    90.35749     1.57485     3.34946
    20.40000    89.64252   358.42521     3.34957    90.35748     1.57479     3.34957
    20.50000    89.64254   358.42527     3.34968    90.35746     1.57473     3.34968
    20.60000    89.64255   358.42532     3.34979    90.35745     1.57468     3.34979
    20.70000    89.64256   358.42538     3.34990    90.35744     1.57462     3.34990
    20.80000    89.64257   358.42544     3.35002    90.35743     1.57456     3.35002
    20.90000    89.64259   358.42550     3.35013    90.35741     1.57450     3.35013
    21.00000    89.64260   358.42556     3.35024    90.35740     1.57444     3.35024
    21.10000    89.64261   358.42561     3.35035    90.35739     1.57439     3.35035
    21.20000    89.64262   358.42567     3.35046    90.35738     1.57433     3.35046
    21.30000    89.64264   358.42573     3.35057    90.35736     1.57427     3.35057
    21.40000    89.64265   358.42579     3.35068    90.35735     1.57421     3.35068
    21.50000    89.64266   358.42585     3.35079    90.35734     1.57415     3.35079
    21.60000    89.64267   358.42590     3.35091    90.35733     1.57410     3.35091
    21.70000    89.64269   358.42596     3.35102    90.35731     1.57404     3.35102
    21.80000    89.64270   358.42602     3.35113    90.35730     1.57398     3.35113
    21.90000    89.64271   358.42608     3.35124    90.35729     1.57392     3.35124
    22.00000    89.64272   358.42614     3.35135    90.35728     1.57386     3.35135
    22.10000    89.64274   358.42619     3.35146    90.35726     1.57381     3.35146
    22.20000    89.64275   358.42625     3.35157    90.35725     1.57375     3.35157
    22.30000    89.64276   358.42631     3.35168    90.35724     1.57369     3.35168
    22.40000    89.64277   358.42637     3.35179    90.35723     1.57363     3.35179
    22.50000    89.64279   358.42642     3.35190    90.35721     1.57358     3.35190
    22.60000    89.64280   358.42648     3.35201    90.35720     1.57352     3.35201
    22.70000    89.64281   358.42654     3.35212    90.35719     1.57346     3.35212
    22.80000    89.64282   358.42660     3.35224    90.35718     1.57340     3.35224
    22.90000    89.64284   358.42666     3.35235    90.35716     1.57334     3.35235
    23.00000    89.64285   358.42671     3.35246    90.35715     1.57329     3.35246
    23.10000    89.64286   358.42677     3.35257    90.35714     1.57323     3.35257
    23.20000    89.64287   358.42683     3.35268    90.35713     1.57317     3.35268
    23.30000    89.64289   358.42689     3.35279    90.35711     1.57311     3.35279
