 # applied field (T), theta (degree), phi (degree), abs [muB/unitcell], abs [T]
       0.00000000       0.00000000       0.00000000      45.01447524       1.50482494
       0.10000000       0.22640821     360.00000000      45.01447473       1.50482493
       0.20000000       0.45281658     360.00000000      45.01447319       1.50482487
       0.30000000       0.67922528     360.00000000      45.01447061       1.50482479
       0.40000000       0.90563446     360.00000000      45.01446702       1.50482467
       0.50000000       1.13204428     360.00000000      45.01446240       1.50482451
       0.60000000       1.35845491     360.00000000      45.01445676       1.50482433
       0.70000000       1.58486652     360.00000000      45.01445010       1.50482410
       0.80000000       1.81127925     360.00000000      45.01444243       1.50482385
       0.90000000       2.03769327     360.00000000      45.01443376       1.50482356
       1.00000000       2.26410875     360.00000000      45.01442408       1.50482323
       1.10000000       2.49052584     360.00000000      45.01441340       1.50482288
       1.20000000       2.71694470     360.00000000      45.01440173       1.50482249
       1.30000000       2.94336550     360.00000000      45.01438908       1.50482206
       1.40000000       3.16978840     360.00000000      45.01437546       1.50482161
       1.50000000       3.39621356     360.00000000      45.01436087       1.50482112
       1.60000000       3.62264114     360.00000000      45.01434533       1.50482060
       1.70000000       3.84907131     360.00000000      45.01432884       1.50482005
       1.80000000       4.07550421     360.00000000      45.01431141       1.50481947
       1.90000000       4.30194002     360.00000000      45.01429306       1.50481885
       2.00000000       4.47194005     360.00000000      45.01428222       1.50481849
       2.10000000       4.69838131     360.00000000      45.01426245       1.50481783
       2.20000000       4.92482591     360.00000000      45.01424180       1.50481714
       2.30000000       5.15127402     360.00000000      45.01422027       1.50481642
       2.40000000       5.37772580     360.00000000      45.01419788       1.50481567
       2.50000000       5.60418140     360.00000000      45.01417464       1.50481489
       2.60000000       5.83064099     360.00000000      45.01415056       1.50481409
       2.70000000       6.05710474     360.00000000      45.01412567       1.50481326
       2.80000000       6.28357279     360.00000000      45.01409998       1.50481240
       2.90000000       6.51004531     360.00000000      45.01407351       1.50481151
       3.00000000       6.73652246     360.00000000      45.01404627       1.50481060
       3.10000000       6.96300440     360.00000000      45.01401828       1.50480967
       3.20000000       7.18949129     360.00000000      45.01398957       1.50480871
       3.30000000       7.41598329     360.00000000      45.01396014       1.50480772
       3.40000000       7.64248056     360.00000000      45.01393003       1.50480672
       3.50000000       7.86898327     360.00000000      45.01389925       1.50480569
       3.60000000       8.09549156     360.00000000      45.01386783       1.50480464
       3.70000000       8.32200560     360.00000000      45.01383578       1.50480357
       3.80000000       8.54852556     360.00000000      45.01380313       1.50480247
       3.90000000       8.77505158     360.00000000      45.01376990       1.50480136
       4.00000000       9.00158383     360.00000000      45.01373611       1.50480023
       4.10000000       9.22812246     360.00000000      45.01370179       1.50479909
       4.20000000       9.45466764     360.00000000      45.01366697       1.50479792
       4.30000000       9.68121953     360.00000000      45.01363166       1.50479674
       4.40000000       9.90777828     360.00000000      45.01359589       1.50479555
       4.50000000      10.13434406     360.00000000      45.01355970       1.50479434
       4.60000000      10.36091701     360.00000000      45.01352310       1.50479311
       4.70000000      10.58749731     360.00000000      45.01348613       1.50479188
       4.80000000      10.81408510     360.00000000      45.01344881       1.50479063
       4.90000000      11.04068055     360.00000000      45.01341117       1.50478937
       5.00000000      11.26728381     360.00000000      45.01337323       1.50478810
       5.10000000      11.49389505     360.00000000      45.01333504       1.50478683
       5.20000000      11.72051441     360.00000000      45.01329661       1.50478554
       5.30000000      11.94714206     360.00000000      45.01325798       1.50478425
       5.40000000      12.17377815     360.00000000      45.01321917       1.50478295
       5.50000000      12.40042284     360.00000000      45.01318023       1.50478165
       5.60000000      12.62707629     360.00000000      45.01314118       1.50478035
       5.70000000      12.85373865     360.00000000      45.01310205       1.50477904
       5.80000000      13.08041008     360.00000000      45.01306287       1.50477773
       5.90000000      13.30709074     360.00000000      45.01302369       1.50477642
       6.00000000      13.53378078     360.00000000      45.01298452       1.50477511
       6.10000000      13.76048036     360.00000000      45.01294541       1.50477380
       6.20000000      13.98718963     360.00000000      45.01290639       1.50477250
       6.30000000      14.21390876     360.00000000      45.01286750       1.50477120
       6.40000000      14.44063788     360.00000000      45.01282876       1.50476990
       6.50000000      14.66737716     360.00000000      45.01279021       1.50476861
       6.60000000      14.95064666     360.00000000      45.01273098       1.50476663
       6.70000000      15.17740944     360.00000000      45.01269285       1.50476536
       6.80000000      15.40418287     360.00000000      45.01265502       1.50476409
       6.90000000      15.63096712     360.00000000      45.01261755       1.50476284
       7.00000000      15.85776234     360.00000000      45.01258046       1.50476160
       7.10000000      16.08456868     360.00000000      45.01254379       1.50476038
       7.20000000      16.31138629     360.00000000      45.01250759       1.50475916
       7.30000000      16.53821533     360.00000000      45.01247188       1.50475797
       7.40000000      16.76505595     360.00000000      45.01243671       1.50475680
       7.50000000      16.99190830     360.00000000      45.01240212       1.50475564
       7.60000000      17.21877253     360.00000000      45.01236814       1.50475450
       7.70000000      17.44564879     360.00000000      45.01233482       1.50475339
       7.80000000      17.67253724     360.00000000      45.01230219       1.50475230
       7.90000000      17.89943802     360.00000000      45.01227030       1.50475123
       8.00000000      18.12635129     360.00000000      45.01223918       1.50475019
       8.10000000      18.35327719     360.00000000      45.01220887       1.50474918
       8.20000000      18.58021587     360.00000000      45.01217942       1.50474819
       8.30000000      18.86373970     360.00000000      45.01212983       1.50474654
       8.40000000      19.09070779     360.00000000      45.01210230       1.50474562
       8.50000000      19.31768914     360.00000000      45.01207576       1.50474473
       8.60000000      19.54468391     360.00000000      45.01205025       1.50474388
       8.70000000      19.77169225     360.00000000      45.01202581       1.50474306
       8.80000000      19.99871429     360.00000000      45.01200248       1.50474228
       8.90000000      20.22575019     360.00000000      45.01198031       1.50474154
       9.00000000      20.45280009     360.00000000      45.01195933       1.50474084
       9.10000000      20.67986414     360.00000000      45.01193959       1.50474018
       9.20000000      20.90694248     360.00000000      45.01192113       1.50473956
       9.30000000      21.13403527     360.00000000      45.01190399       1.50473899
       9.40000000      21.41775516     360.00000000      45.01186882       1.50473781
       9.50000000      21.64488106     360.00000000      45.01185467       1.50473734
       9.60000000      21.87202186     360.00000000      45.01184199       1.50473691
       9.70000000      22.09917772     360.00000000      45.01183080       1.50473654
       9.80000000      22.32634876     360.00000000      45.01182116       1.50473622
       9.90000000      22.55353514     360.00000000      45.01181310       1.50473595
      10.00000000      22.78073699     360.00000000      45.01180668       1.50473573
      10.10000000      23.00795445     360.00000000      45.01180192       1.50473557
      10.20000000      23.29183278     360.00000000      45.01178161       1.50473490
      10.30000000      23.51908600     360.00000000      45.01178064       1.50473486
      10.40000000      23.74635528     360.00000000      45.01178149       1.50473489
      10.50000000      23.97364077     360.00000000      45.01178418       1.50473498
      10.60000000      24.20094260     360.00000000      45.01178877       1.50473514
      10.70000000      24.42826091     360.00000000      45.01179530       1.50473535
      10.80000000      24.71226728     360.00000000      45.01178865       1.50473513
      10.90000000      24.93962329     360.00000000      45.01179956       1.50473550
      11.00000000      25.16699621     360.00000000      45.01181254       1.50473593
      11.10000000      25.39438619     360.00000000      45.01182764       1.50473643
      11.20000000      25.62179335     360.00000000      45.01184489       1.50473701
      11.30000000      25.90591247     360.00000000      45.01185131       1.50473723
      11.40000000      26.13335892     360.00000000      45.01187345       1.50473797
      11.50000000      26.36082298     360.00000000      45.01189787       1.50473878
      11.60000000      26.58830478     360.00000000      45.01192463       1.50473968
      11.70000000      26.81580445     360.00000000      45.01195375       1.50474065
      11.80000000      27.10004092     360.00000000      45.01197469       1.50474135
      11.90000000      27.32758142     360.00000000      45.01200918       1.50474250
      12.00000000      27.55514020     360.00000000      45.01204617       1.50474374
      12.10000000      27.78271740     360.00000000      45.01208570       1.50474506
      12.20000000      28.06705218     360.00000000      45.01211940       1.50474619
      12.30000000      28.29467141     360.00000000      45.01216467       1.50474770
      12.40000000      28.52230945     360.00000000      45.01221261       1.50474930
      12.50000000      28.74996644     360.00000000      45.01226325       1.50475100
      12.60000000      29.03440236     360.00000000      45.01231061       1.50475258
      12.70000000      29.26210256     360.00000000      45.01236737       1.50475448
      12.80000000      29.48982209     360.00000000      45.01242695       1.50475647
      12.90000000      29.71756106     360.00000000      45.01248938       1.50475856
      13.00000000      30.00210089     360.00000000      45.01255127       1.50476063
      13.10000000      30.22988421     360.00000000      45.01262016       1.50476293
      13.20000000      30.45768736     360.00000000      45.01269204       1.50476533
      13.30000000      30.74230851     360.00000000      45.01276556       1.50476779
      13.40000000      30.97015685     360.00000000      45.01284415       1.50477042
      13.50000000      31.19802539     360.00000000      45.01292583       1.50477315
      13.60000000      31.48272937     360.00000000      45.01301146       1.50477601
      13.70000000      31.71064392     360.00000000      45.01310010       1.50477897
      13.80000000      31.93857902     360.00000000      45.01319194       1.50478204
      13.90000000      32.22336731     360.00000000      45.01329011       1.50478532
      14.00000000      32.45134922     360.00000000      45.01338915       1.50478864
      14.10000000      32.67935203     360.00000000      45.01349147       1.50479206
      14.20000000      32.96422606     360.00000000      45.01360261       1.50479577
      14.30000000      33.19227644     360.00000000      45.01371236       1.50479944
      14.40000000      33.47721072     360.00000000      45.01383267       1.50480346
      14.50000000      33.70530920     360.00000000      45.01394999       1.50480738
      14.60000000      33.93342912     360.00000000      45.01407074       1.50481142
      14.70000000      34.21845145     360.00000000      45.01420468       1.50481590
      14.80000000      34.44662019     360.00000000      45.01433319       1.50482019
      14.90000000      34.73170431     360.00000000      45.01447675       1.50482499
      15.00000000      34.95992235     360.00000000      45.01461315       1.50482955
      15.10000000      35.24506888     360.00000000      45.01476648       1.50483468
      15.20000000      35.47333668     360.00000000      45.01491088       1.50483951
      15.30000000      35.75854620     360.00000000      45.01507413       1.50484496
      15.40000000      35.98686422     360.00000000      45.01522666       1.50485006
      15.50000000      36.27213730     360.00000000      45.01539997       1.50485586
      15.60000000      36.50050597     360.00000000      45.01556071       1.50486123
      15.70000000      36.78584316     360.00000000      45.01574422       1.50486736
      15.80000000      37.01426290     360.00000000      45.01591327       1.50487302
      15.90000000      37.29966473     360.00000000      45.01610709       1.50487950
      16.00000000      37.52813595     360.00000000      45.01628454       1.50488543
      16.10000000      37.81360292     360.00000000      45.01648878       1.50489226
      16.20000000      38.04212601     360.00000000      45.01667471       1.50489847
      16.30000000      38.32765862     360.00000000      45.01688946       1.50490565
      16.40000000      38.61322804     360.00000000      45.01711006       1.50491302
      16.50000000      38.84183266     360.00000000      45.01730928       1.50491968
      16.60000000      39.12746843     360.00000000      45.01754053       1.50492742
      16.70000000      39.35612583     360.00000000      45.01774837       1.50493436
      16.80000000      39.64182839     360.00000000      45.01799033       1.50494245
      16.90000000      39.92756839     360.00000000      45.01823824       1.50495074
      17.00000000      40.15630867     360.00000000      45.01845956       1.50495814
      17.10000000      40.44211610     360.00000000      45.01871826       1.50496679
      17.20000000      40.72796130     360.00000000      45.01898294       1.50497563
      17.30000000      41.01384440     360.00000000      45.01925363       1.50498468
      17.40000000      41.24269840     360.00000000      45.01949334       1.50499270
      17.50000000      41.52864970     360.00000000      45.01977488       1.50500211
      17.60000000      41.81463921     360.00000000      45.02006244       1.50501172
      17.70000000      42.10066701     360.00000000      45.02035602       1.50502154
      17.80000000      42.32963592     360.00000000      45.02061415       1.50503017
      17.90000000      42.61573260     360.00000000      45.02091858       1.50504034
      18.00000000      42.90186785     360.00000000      45.02122903       1.50505072
      18.10000000      43.18804174     360.00000000      45.02154547       1.50506130
      18.20000000      43.47425437     360.00000000      45.02186792       1.50507208
      18.30000000      43.70336991     360.00000000      45.02214922       1.50508148
      18.40000000      43.98965213     360.00000000      45.02248244       1.50509262
      18.50000000      44.27597328     360.00000000      45.02282163       1.50510396
      18.60000000      44.56233345     360.00000000      45.02316676       1.50511550
      18.70000000      44.84873268     360.00000000      45.02351781       1.50512723
      18.80000000      45.13517105     360.00000000      45.02387476       1.50513917
      18.90000000      45.42164860     360.00000000      45.02423760       1.50515130
      19.00000000      45.70816539     360.00000000      45.02460628       1.50516362
      19.10000000      45.99472146     360.00000000      45.02498079       1.50517614
      19.20000000      46.28131686     360.00000000      45.02536110       1.50518886
      19.30000000      46.56795164     360.00000000      45.02574716       1.50520176
      19.40000000      46.85462581     360.00000000      45.02613895       1.50521486
      19.50000000      47.14133942     360.00000000      45.02653644       1.50522815
      19.60000000      47.42809249     360.00000000      45.02693957       1.50524162
      19.70000000      47.71488505     360.00000000      45.02734832       1.50525529
      19.80000000      48.00171711     360.00000000      45.02776263       1.50526914
      19.90000000      48.28858870     360.00000000      45.02818246       1.50528317
      20.00000000      48.63277553     360.00000000      45.02867449       1.50529962
      20.10000000      48.91973450     360.00000000      45.02910632       1.50531406
      20.20000000      49.20673301     360.00000000      45.02954351       1.50532867
      20.30000000      49.49377107     360.00000000      45.02998601       1.50534347
      20.40000000      49.78084867     360.00000000      45.03043376       1.50535843
      20.50000000      50.12528488     360.00000000      45.03095904       1.50537599
      20.60000000      50.41244986     360.00000000      45.03141817       1.50539134
      20.70000000      50.69965435     360.00000000      45.03188236       1.50540686
      20.80000000      51.04424414     360.00000000      45.03242721       1.50542507
      20.90000000      51.33153590     360.00000000      45.03290233       1.50544096
      21.00000000      51.61886708     360.00000000      45.03338230       1.50545700
      21.10000000      51.96361023     360.00000000      45.03394591       1.50547584
      21.20000000      52.25102849     360.00000000      45.03443634       1.50549224
      21.30000000      52.53848606     360.00000000      45.03493137       1.50550879
      21.40000000      52.88338220     360.00000000      45.03551289       1.50552823
      21.50000000      53.17092657     360.00000000      45.03601785       1.50554511
      21.60000000      53.51592779     360.00000000      45.03661114       1.50556494
      21.70000000      53.86098647     360.00000000      45.03721070       1.50558498
      21.80000000      54.14866473     360.00000000      45.03773025       1.50560235
      21.90000000      54.49382804     360.00000000      45.03834086       1.50562277
      22.00000000      54.78159243     360.00000000      45.03886932       1.50564043
      22.10000000      55.12686002     360.00000000      45.03949048       1.50566120
      22.20000000      55.47218460     360.00000000      45.04011721       1.50568215
      22.30000000      55.76008168     360.00000000      45.04065860       1.50570025
      22.40000000      56.10550993     360.00000000      45.04129506       1.50572152
      22.50000000      56.45099482     360.00000000      45.04193663       1.50574297
      22.60000000      56.79653622     360.00000000      45.04258314       1.50576458
      22.70000000      57.14213398     360.00000000      45.04323443       1.50578636
      22.80000000      57.43025556     360.00000000      45.04379536       1.50580511
      22.90000000      57.77595570     360.00000000      45.04445487       1.50582716
      23.00000000      58.12171175     360.00000000      45.04511864       1.50584935
