 # applied field (T), theta (degree), phi (degree), abs [muB/unitcell], abs [T]
       0.00000000       0.00000000       0.00000000      51.64226233       1.79832631
       0.10000000       0.22643647     360.00000000      51.64226171       1.79832629
       0.20000000       0.45287313     360.00000000      51.64225986       1.79832623
       0.30000000       0.73577142     360.00000000      51.64225511       1.79832606
       0.40000000       0.96220921     360.00000000      51.64225026       1.79832589
       0.50000000       1.18864783     360.00000000      51.64224419       1.79832568
       0.60000000       1.41508745     360.00000000      51.64223689       1.79832543
       0.70000000       1.64152827     360.00000000      51.64222838       1.79832513
       0.80000000       1.92443319     360.00000000      51.64221425       1.79832464
       0.90000000       2.15087743     360.00000000      51.64220283       1.79832424
       1.00000000       2.37732349     360.00000000      51.64219022       1.79832380
       1.10000000       2.60377156     360.00000000      51.64217644       1.79832332
       1.20000000       2.83022185     360.00000000      51.64216149       1.79832280
       1.30000000       3.05667454     360.00000000      51.64214541       1.79832224
       1.40000000       3.33959603     360.00000000      51.64212060       1.79832138
       1.50000000       3.56605485     360.00000000      51.64210179       1.79832072
       1.60000000       3.79251670     360.00000000      51.64208188       1.79832003
       1.70000000       4.01898177     360.00000000      51.64206090       1.79831930
       1.80000000       4.24545026     360.00000000      51.64203887       1.79831853
       1.90000000       4.52839297     360.00000000      51.64200569       1.79831738
       2.00000000       4.75486988     360.00000000      51.64198117       1.79831652
       2.10000000       4.98135083     360.00000000      51.64195567       1.79831563
       2.20000000       5.20783603     360.00000000      51.64192923       1.79831471
       2.30000000       5.43432566     360.00000000      51.64190186       1.79831376
       2.40000000       5.71729631     360.00000000      51.64186108       1.79831234
       2.50000000       5.94379666     360.00000000      51.64183153       1.79831131
       2.60000000       6.17030209     360.00000000      51.64180115       1.79831025
       2.70000000       6.39681278     360.00000000      51.64176997       1.79830917
       2.80000000       6.62332895     360.00000000      51.64173803       1.79830805
       2.90000000       6.90633428     360.00000000      51.64169069       1.79830641
       3.00000000       7.13286347     360.00000000      51.64165695       1.79830523
       3.10000000       7.35939878     360.00000000      51.64162255       1.79830403
       3.20000000       7.58594038     360.00000000      51.64158755       1.79830281
       3.30000000       7.86897877     360.00000000      51.64153572       1.79830101
       3.40000000       8.09553531     360.00000000      51.64149927       1.79829974
       3.50000000       8.32209879     360.00000000      51.64146235       1.79829845
       3.60000000       8.54866941     360.00000000      51.64142498       1.79829715
       3.70000000       8.77524739     360.00000000      51.64138721       1.79829584
       3.80000000       9.05833282     360.00000000      51.64133117       1.79829389
       3.90000000       9.28492808     360.00000000      51.64129247       1.79829254
       4.00000000       9.51153134     360.00000000      51.64125353       1.79829118
       4.10000000       9.73814280     360.00000000      51.64121438       1.79828982
       4.20000000      10.02127139     360.00000000      51.64115604       1.79828779
       4.30000000      10.24790206     360.00000000      51.64111642       1.79828641
       4.40000000      10.47454159     360.00000000      51.64107677       1.79828503
       4.50000000      10.70119018     360.00000000      51.64103713       1.79828365
       4.60000000      10.98436650     360.00000000      51.64097763       1.79828158
       4.70000000      11.21103625     360.00000000      51.64093802       1.79828020
       4.80000000      11.43771572     360.00000000      51.64089861       1.79827882
       4.90000000      11.72093168     360.00000000      51.64083899       1.79827675
       5.00000000      11.94763381     360.00000000      51.64080003       1.79827539
       5.10000000      12.17434634     360.00000000      51.64076145       1.79827405
       5.20000000      12.40106947     360.00000000      51.64072331       1.79827272
       5.30000000      12.68434137     360.00000000      51.64066480       1.79827068
       5.40000000      12.91108914     360.00000000      51.64062768       1.79826939
       5.50000000      13.13784820     360.00000000      51.64059121       1.79826812
       5.60000000      13.42116606     360.00000000      51.64053443       1.79826614
       5.70000000      13.64795129     360.00000000      51.64049945       1.79826492
       5.80000000      13.87474848     360.00000000      51.64046533       1.79826374
       5.90000000      14.10155785     360.00000000      51.64043212       1.79826258
       6.00000000      14.38494001     360.00000000      51.64037901       1.79826073
       6.10000000      14.61177758     360.00000000      51.64034794       1.79825965
       6.20000000      14.83862801     360.00000000      51.64031802       1.79825861
       6.30000000      15.12206260     360.00000000      51.64026870       1.79825689
       6.40000000      15.34894281     360.00000000      51.64024143       1.79825594
       6.50000000      15.63241538     360.00000000      51.64019522       1.79825433
       6.60000000      15.85932644     360.00000000      51.64017097       1.79825348
       6.70000000      16.08625155     360.00000000      51.64014826       1.79825269
       6.80000000      16.36978138     360.00000000      51.64010749       1.79825127
       6.90000000      16.59673895     360.00000000      51.64008834       1.79825061
       7.00000000      16.82371127     360.00000000      51.64007099       1.79825000
       7.10000000      17.10730126     360.00000000      51.64003667       1.79824881
       7.20000000      17.33430764     360.00000000      51.64002345       1.79824835
       7.30000000      17.61794100     360.00000000      51.63999412       1.79824733
       7.40000000      17.84498257     360.00000000      51.63998544       1.79824702
       7.50000000      18.07204011     360.00000000      51.63997897       1.79824680
       7.60000000      18.35573858     360.00000000      51.63995787       1.79824606
       7.70000000      18.58283293     360.00000000      51.63995653       1.79824602
       7.80000000      18.86657824     360.00000000      51.63994169       1.79824550
       7.90000000      19.09371055     360.00000000      51.63994589       1.79824565
       8.00000000      19.37750413     360.00000000      51.63993784       1.79824537
       8.10000000      19.60467553     360.00000000      51.63994800       1.79824572
       8.20000000      19.88851883     360.00000000      51.63994728       1.79824570
       8.30000000      20.11573049     360.00000000      51.63996383       1.79824627
       8.40000000      20.39962495     360.00000000      51.63997097       1.79824652
       8.50000000      20.62687802     360.00000000      51.63999434       1.79824733
       8.60000000      20.91082511     360.00000000      51.64000990       1.79824788
       8.70000000      21.13812077     360.00000000      51.64004053       1.79824894
       8.80000000      21.42212195     360.00000000      51.64006506       1.79824980
       8.90000000      21.64946138     360.00000000      51.64010338       1.79825113
       9.00000000      21.93351814     360.00000000      51.64013743       1.79825232
       9.10000000      22.21760644     360.00000000      51.64017692       1.79825369
       9.20000000      22.44501632     360.00000000      51.64022802       1.79825547
       9.30000000      22.72916251     360.00000000      51.64027790       1.79825721
       9.40000000      23.01334155     360.00000000      51.64033371       1.79825915
       9.50000000      23.24082477     360.00000000      51.64039866       1.79826141
       9.60000000      23.52506403     360.00000000      51.64046572       1.79826375
       9.70000000      23.80933744     360.00000000      51.64053920       1.79826631
       9.80000000      24.03689691     360.00000000      51.64061907       1.79826909
       9.90000000      24.32123288     360.00000000      51.64070467       1.79827207
      10.00000000      24.60560431     360.00000000      51.64079717       1.79827529
      10.10000000      24.89001167     360.00000000      51.64089673       1.79827876
      10.20000000      25.11767931     360.00000000      51.64099850       1.79828230
      10.30000000      25.40215245     360.00000000      51.64111136       1.79828623
      10.40000000      25.68666282     360.00000000      51.64123175       1.79829042
      10.50000000      25.97121091     360.00000000      51.64135984       1.79829488
      10.60000000      26.25579719     360.00000000      51.64149581       1.79829962
      10.70000000      26.54042212     360.00000000      51.64163982       1.79830463
      10.80000000      26.82508619     360.00000000      51.64179203       1.79830993
      10.90000000      27.10978986     360.00000000      51.64195260       1.79831553
      11.00000000      27.39453360     360.00000000      51.64212170       1.79832141
      11.10000000      27.67931789     360.00000000      51.64229947       1.79832761
      11.20000000      27.96414319     360.00000000      51.64248608       1.79833410
      11.30000000      28.24900997     360.00000000      51.64268167       1.79834091
      11.40000000      28.53391872     360.00000000      51.64288640       1.79834804
      11.50000000      28.81886988     360.00000000      51.64310042       1.79835550
      11.60000000      29.10386393     360.00000000      51.64332386       1.79836328
      11.70000000      29.44579977     360.00000000      51.64358569       1.79837240
      11.80000000      29.73088990     360.00000000      51.64383025       1.79838091
      11.90000000      30.01602440     360.00000000      51.64408468       1.79838977
      12.00000000      30.35813104     360.00000000      51.64438389       1.79840019
      12.10000000      30.64336486     360.00000000      51.64466038       1.79840982
      12.20000000      30.92864451     360.00000000      51.64494713       1.79841980
      12.30000000      31.27092759     360.00000000      51.64528531       1.79843158
      12.40000000      31.55630973     360.00000000      51.64559497       1.79844236
      12.50000000      31.89871734     360.00000000      51.64596073       1.79845510
      12.60000000      32.24119403     360.00000000      51.64634174       1.79846837
      12.70000000      32.52673883     360.00000000      51.64668775       1.79848042
      12.80000000      32.86934396     360.00000000      51.64709725       1.79849468
      12.90000000      33.21202028     360.00000000      51.64752246       1.79850948
      13.00000000      33.55476849     360.00000000      51.64796352       1.79852484
      13.10000000      33.89758930     360.00000000      51.64842055       1.79854076
      13.20000000      34.24048341     360.00000000      51.64889367       1.79855723
      13.30000000      34.58345151     360.00000000      51.64938298       1.79857427
      13.40000000      34.98358203     360.00000000      51.64995711       1.79859427
      13.50000000      35.32671281     360.00000000      51.65048171       1.79861253
      13.60000000      35.72703521     360.00000000      51.65109703       1.79863396
      13.70000000      36.07033164     360.00000000      51.65165718       1.79865347
      13.80000000      36.47084925     360.00000000      51.65231392       1.79867634
      13.90000000      36.87147337     360.00000000      51.65299297       1.79869998
      14.00000000      37.27220486     360.00000000      51.65369430       1.79872440
      14.10000000      37.67304451     360.00000000      51.65441785       1.79874960
      14.20000000      38.07399310     360.00000000      51.65516355       1.79877557
      14.30000000      38.53227584     360.00000000      51.65602745       1.79880565
      14.40000000      38.99070319     360.00000000      51.65691979       1.79883673
      14.50000000      90.00000000     360.00000000      51.72514891       1.80121265
      14.60000000      90.00000000     360.00000000      51.72519538       1.80121427
      14.70000000      90.00000000     360.00000000      51.72524185       1.80121589
      14.80000000      90.00000000     360.00000000      51.72528832       1.80121751
      14.90000000      90.00000000     360.00000000      51.72533481       1.80121913
      15.00000000      90.00000000     360.00000000      51.72538129       1.80122074
      15.10000000      90.00000000     360.00000000      51.72542779       1.80122236
      15.20000000      90.00000000     360.00000000      51.72547429       1.80122398
      15.30000000      90.00000000     360.00000000      51.72552079       1.80122560
      15.40000000      90.00000000     360.00000000      51.72556730       1.80122722
      15.50000000      90.00000000     360.00000000      51.72561382       1.80122884
      15.60000000      90.00000000     360.00000000      51.72566034       1.80123046
      15.70000000      90.00000000     360.00000000      51.72570687       1.80123208
      15.80000000      90.00000000     360.00000000      51.72575340       1.80123370
      15.90000000      90.00000000     360.00000000      51.72579994       1.80123532
      16.00000000      90.00000000     360.00000000      51.72584649       1.80123694
      16.10000000      90.00000000     360.00000000      51.72589304       1.80123856
      16.20000000      90.00000000     360.00000000      51.72593959       1.80124019
      16.30000000      90.00000000     360.00000000      51.72598615       1.80124181
      16.40000000      90.00000000     360.00000000      51.72603272       1.80124343
      16.50000000      90.00000000     360.00000000      51.72607929       1.80124505
      16.60000000      90.00000000     360.00000000      51.72612587       1.80124667
      16.70000000      90.00000000     360.00000000      51.72617246       1.80124829
      16.80000000      90.00000000     360.00000000      51.72621905       1.80124992
      16.90000000      90.00000000     360.00000000      51.72626565       1.80125154
      17.00000000      90.00000000     360.00000000      51.72631225       1.80125316
      17.10000000      90.00000000     360.00000000      51.72635885       1.80125479
      17.20000000      90.00000000     360.00000000      51.72640547       1.80125641
      17.30000000      90.00000000     360.00000000      51.72645209       1.80125803
      17.40000000      90.00000000     360.00000000      51.72649871       1.80125966
      17.50000000      90.00000000     360.00000000      51.72654534       1.80126128
      17.60000000      90.00000000     360.00000000      51.72659198       1.80126290
      17.70000000      90.00000000     360.00000000      51.72663862       1.80126453
      17.80000000      90.00000000     360.00000000      51.72668527       1.80126615
      17.90000000      90.00000000     360.00000000      51.72673192       1.80126778
      18.00000000      90.00000000     360.00000000      51.72677858       1.80126940
      18.10000000      90.00000000     360.00000000      51.72682524       1.80127103
      18.20000000      90.00000000     360.00000000      51.72687191       1.80127265
      18.30000000      90.00000000     360.00000000      51.72691859       1.80127428
      18.40000000      90.00000000     360.00000000      51.72696527       1.80127590
      18.50000000      90.00000000     360.00000000      51.72701196       1.80127753
      18.60000000      90.00000000     360.00000000      51.72705865       1.80127915
      18.70000000      90.00000000     360.00000000      51.72710535       1.80128078
      18.80000000      90.00000000     360.00000000      51.72715206       1.80128241
      18.90000000      90.00000000     360.00000000      51.72719877       1.80128403
      19.00000000      90.00000000     360.00000000      51.72724548       1.80128566
      19.10000000      90.00000000     360.00000000      51.72729220       1.80128729
      19.20000000      90.00000000     360.00000000      51.72733893       1.80128891
      19.30000000      90.00000000     360.00000000      51.72738566       1.80129054
      19.40000000      90.00000000     360.00000000      51.72743240       1.80129217
      19.50000000      90.00000000     360.00000000      51.72747915       1.80129380
      19.60000000      90.00000000     360.00000000      51.72752590       1.80129543
      19.70000000      90.00000000     360.00000000      51.72757266       1.80129705
      19.80000000      90.00000000     360.00000000      51.72761942       1.80129868
      19.90000000      90.00000000     360.00000000      51.72766618       1.80130031
      20.00000000      90.00000000     360.00000000      51.72771296       1.80130194
      20.10000000      90.00000000     360.00000000      51.72775974       1.80130357
      20.20000000      90.00000000     360.00000000      51.72780652       1.80130520
      20.30000000      90.00000000     360.00000000      51.72785331       1.80130683
      20.40000000      90.00000000     360.00000000      51.72790011       1.80130846
      20.50000000      90.00000000     360.00000000      51.72794691       1.80131009
      20.60000000      90.00000000     360.00000000      51.72799372       1.80131172
      20.70000000      90.00000000     360.00000000      51.72804053       1.80131335
      20.80000000      90.00000000     360.00000000      51.72808735       1.80131498
      20.90000000      90.00000000     360.00000000      51.72813418       1.80131661
      21.00000000      90.00000000     360.00000000      51.72818101       1.80131824
      21.10000000      90.00000000     360.00000000      51.72822784       1.80131987
      21.20000000      90.00000000     360.00000000      51.72827469       1.80132150
      21.30000000      90.00000000     360.00000000      51.72832153       1.80132313
      21.40000000      90.00000000     360.00000000      51.72836839       1.80132476
      21.50000000      90.00000000     360.00000000      51.72841525       1.80132639
      21.60000000      90.00000000     360.00000000      51.72846211       1.80132803
      21.70000000      90.00000000     360.00000000      51.72850898       1.80132966
      21.80000000      90.00000000     360.00000000      51.72855586       1.80133129
      21.90000000      90.00000000     360.00000000      51.72860274       1.80133292
      22.00000000      90.00000000     360.00000000      51.72864963       1.80133456
      22.10000000      90.00000000     360.00000000      51.72869653       1.80133619
      22.20000000      90.00000000     360.00000000      51.72874343       1.80133782
      22.30000000      90.00000000     360.00000000      51.72879033       1.80133946
      22.40000000      90.00000000     360.00000000      51.72883724       1.80134109
      22.50000000      90.00000000     360.00000000      51.72888416       1.80134272
      22.60000000      90.00000000     360.00000000      51.72893108       1.80134436
      22.70000000      90.00000000     360.00000000      51.72897801       1.80134599
      22.80000000      90.00000000     360.00000000      51.72902495       1.80134763
      22.90000000      90.00000000     360.00000000      51.72907189       1.80134926
      23.00000000      90.00000000     360.00000000      51.72911883       1.80135090
