 # applied field (T), theta (degree), phi (degree), abs for RE 3-4
     0.00000   166.98490   135.00000     0.09348   166.98490    45.00000     0.09348
     0.10000   165.77766   140.32560     0.09303   167.91448    51.29619     0.09301
     0.20000   164.55784   144.54796     0.09264   168.64603    58.14320     0.09260
     0.30000   163.19404   148.34900     0.09228   169.23406    66.39335     0.09222
     0.40000   161.78203   151.56993     0.09197   169.58420    75.45980     0.09189
     0.50000   160.33751   154.32091     0.09171   169.66522    84.97053     0.09161
     0.60000   158.87274   156.69035     0.09149   169.46548    94.42708     0.09139
     0.70000   157.39745   158.74847     0.09131   168.99654   103.34698     0.09121
     0.80000   155.91944   160.55087     0.09117   168.28868   111.39547     0.09109
     0.90000   154.44503   162.14173     0.09108   167.38152   118.42883     0.09102
     1.00000   152.97946   163.55626     0.09101   166.31542   124.45579     0.09100
     1.10000   151.52705   164.82278     0.09098   165.12637   129.57143     0.09104
     1.20000   150.00540   166.02811     0.09099   163.76526   134.14337     0.09113
     1.30000   148.50613   167.11492     0.09103   162.32756   137.98607     0.09128
     1.40000   147.11552   168.04871     0.09109   160.92046   141.06186     0.09147
     1.50000   145.66804   168.95365     0.09117   159.39200   143.85111     0.09173
     1.60000   144.17069   169.82836     0.09130   157.74995   146.36916     0.09205
     1.70000   142.78665   170.59147     0.09143   156.18061   148.41859     0.09241
     1.80000   141.35970   171.33706     0.09159   154.51600   150.29890     0.09283
     1.90000   139.97124   172.02951     0.09176   152.85200   151.93648     0.09331
     2.00000   138.62244   172.67589     0.09195   151.19469   153.37323     0.09383
     2.10000   137.24437   173.31274     0.09216   149.46131   154.70729     0.09443
     2.20000   135.91205   173.91112     0.09237   147.74518   155.88611     0.09507
     2.30000   134.62610   174.47615     0.09259   146.04981   156.93443     0.09575
     2.40000   133.32418   175.03783     0.09283   144.29372   157.91806     0.09650
     2.50000   132.01390   175.59619     0.09308   142.48324   158.83916     0.09733
     2.60000   130.81833   176.10535     0.09331   140.78691   159.62694     0.09815
     2.70000   129.56442   176.63848     0.09357   138.96268   160.40607     0.09908
     2.80000   128.37245   177.15065     0.09382   137.17684   161.10772     0.10004
     2.90000   127.19221   177.66552     0.09408   135.35373   161.77000     0.10106
     3.00000   126.03100   178.18375     0.09435   133.49858   162.39451     0.10215
     3.10000   124.93990   178.68692     0.09462   131.68851   162.96080     0.10324
     3.20000   123.83444   179.21475     0.09492   129.78171   163.51745     0.10444
     3.30000   122.80565   179.72987     0.09523   127.92474   164.02353     0.10564
     3.40000   121.77844   180.26957     0.09558   125.98241   164.51969     0.10692
     3.50000   120.76416   180.83252     0.09598   123.96344   165.00316     0.10829
     3.60000   119.80185   181.39994     0.09645   121.93856   165.45814     0.10968
     3.70000   118.83344   182.00336     0.09703   119.78778   165.91277     0.11117
     3.80000   117.89178   182.62128     0.09773   117.58198   166.35149     0.11271
     3.90000   116.94639   183.26303     0.09863   115.26934   166.78530     0.11433
     4.00000   115.96438   183.93265     0.09979   112.80413   167.22226     0.11603
     4.10000   114.90388   184.62695     0.10131   110.14625   167.66845     0.11784
     4.20000   113.68234   185.34524     0.10336   107.20928   168.13708     0.11978
     4.30000   112.16105   186.07925     0.10616   103.86936   168.64654     0.12191
     4.40000   110.05907   186.81577     0.11019    99.87978   169.23440     0.12429
     4.50000   106.59731   187.54321     0.11658    94.54498   170.01064     0.12721
     4.60000    96.49599   188.26520     0.13213    83.50401   171.73480     0.13213
     4.70000    96.50088   188.27155     0.13201    83.49912   171.72845     0.13201
     4.80000    96.50577   188.27791     0.13189    83.49423   171.72209     0.13189
     4.90000    96.51068   188.28428     0.13177    83.48932   171.71572     0.13177
     5.00000    96.51560   188.29066     0.13165    83.48440   171.70934     0.13165
     5.10000    96.52052   188.29706     0.13153    83.47948   171.70294     0.13153
     5.20000    96.52545   188.30346     0.13140    83.47455   171.69654     0.13140
     5.30000    96.53039   188.30988     0.13128    83.46961   171.69012     0.13128
     5.40000    96.53534   188.31630     0.13116    83.46466   171.68370     0.13116
     5.50000    96.54030   188.32274     0.13104    83.45970   171.67726     0.13104
     5.60000    96.54526   188.32919     0.13092    83.45474   171.67081     0.13092
     5.70000    96.55024   188.33565     0.13080    83.44976   171.66435     0.13080
     5.80000    96.55522   188.34213     0.13067    83.44478   171.65787     0.13067
     5.90000    96.56021   188.34861     0.13055    83.43979   171.65139     0.13055
     6.00000    96.56521   188.35510     0.13043    83.43479   171.64490     0.13043
     6.10000    96.57022   188.36161     0.13031    83.42978   171.63839     0.13031
     6.20000    96.57523   188.36813     0.13019    83.42477   171.63187     0.13019
     6.30000    96.58026   188.37466     0.13007    83.41974   171.62534     0.13007
     6.40000    96.58529   188.38120     0.12995    83.41471   171.61880     0.12995
     6.50000    96.59034   188.38775     0.12983    83.40966   171.61225     0.12983
     6.60000    96.59539   188.39432     0.12970    83.40461   171.60568     0.12970
     6.70000    96.60045   188.40089     0.12958    83.39955   171.59911     0.12958
     6.80000    96.60552   188.40748     0.12946    83.39448   171.59252     0.12946
     6.90000    96.61060   188.41408     0.12934    83.38940   171.58592     0.12934
     7.00000    96.61568   188.42069     0.12922    83.38432   171.57931     0.12922
     7.10000    96.62078   188.42731     0.12910    83.37922   171.57269     0.12910
     7.20000    96.62589   188.43394     0.12898    83.37411   171.56606     0.12898
     7.30000    96.63100   188.44059     0.12885    83.36900   171.55941     0.12885
     7.40000    96.63612   188.44725     0.12873    83.36388   171.55275     0.12873
     7.50000    96.64125   188.45392     0.12861    83.35875   171.54608     0.12861
     7.60000    96.64639   188.46060     0.12849    83.35361   171.53940     0.12849
     7.70000    96.65154   188.46729     0.12837    83.34846   171.53271     0.12837
     7.80000    96.65670   188.47400     0.12825    83.34330   171.52600     0.12825
     7.90000    96.66187   188.48072     0.12813    83.33813   171.51928     0.12813
     8.00000    96.66705   188.48744     0.12801    83.33295   171.51256     0.12801
     8.10000    96.67223   188.49419     0.12788    83.32777   171.50581     0.12788
     8.20000    96.67743   188.50094     0.12776    83.32257   171.49906     0.12776
     8.30000    96.68263   188.50771     0.12764    83.31737   171.49229     0.12764
     8.40000    96.68784   188.51448     0.12752    83.31216   171.48552     0.12752
     8.50000    96.69307   188.52127     0.12740    83.30693   171.47873     0.12740
     8.60000    96.69830   188.52808     0.12728    83.30170   171.47192     0.12728
     8.70000    96.70354   188.53489     0.12716    83.29646   171.46511     0.12716
     8.80000    96.70879   188.54172     0.12704    83.29121   171.45828     0.12704
     8.90000    96.71405   188.54856     0.12692    83.28595   171.45144     0.12692
     9.00000    96.71932   188.55541     0.12680    83.28068   171.44459     0.12680
     9.10000    96.72459   188.56227     0.12667    83.27541   171.43773     0.12667
     9.20000    96.72988   188.56915     0.12655    83.27012   171.43085     0.12655
     9.30000    96.73518   188.57604     0.12643    83.26482   171.42396     0.12643
     9.40000    96.74048   188.58294     0.12631    83.25952   171.41706     0.12631
     9.50000    96.74580   188.58985     0.12619    83.25420   171.41015     0.12619
     9.60000    96.75112   188.59678     0.12607    83.24888   171.40322     0.12607
     9.70000    96.75646   188.60372     0.12595    83.24354   171.39628     0.12595
     9.80000    96.76180   188.61067     0.12583    83.23820   171.38933     0.12583
     9.90000    96.76716   188.61763     0.12571    83.23284   171.38237     0.12571
    10.00000    96.77252   188.62461     0.12559    83.22748   171.37539     0.12559
    10.10000    96.77789   188.63160     0.12546    83.22211   171.36840     0.12546
    10.20000    96.78327   188.63860     0.12534    83.21673   171.36140     0.12534
    10.30000    96.78867   188.64562     0.12522    83.21133   171.35438     0.12522
    10.40000    96.79407   188.65264     0.12510    83.20593   171.34736     0.12510
    10.50000    96.79948   188.65969     0.12498    83.20052   171.34031     0.12498
    10.60000    96.80490   188.66674     0.12486    83.19510   171.33326     0.12486
    10.70000    96.81033   188.67381     0.12474    83.18967   171.32619     0.12474
    10.80000    96.81577   188.68089     0.12462    83.18423   171.31911     0.12462
    10.90000    96.82122   188.68798     0.12450    83.17878   171.31202     0.12450
    11.00000    96.82668   188.69508     0.12438    83.17332   171.30492     0.12438
    11.10000    96.83215   188.70220     0.12426    83.16785   171.29780     0.12426
    11.20000    96.83763   188.70934     0.12414    83.16237   171.29066     0.12414
    11.30000    96.84312   188.71648     0.12402    83.15688   171.28352     0.12402
    11.40000    96.84862   188.72364     0.12389    83.15138   171.27636     0.12389
    11.50000    96.85413   188.73081     0.12377    83.14587   171.26919     0.12377
    11.60000    96.85965   188.73800     0.12365    83.14035   171.26200     0.12365
    11.70000    96.86518   188.74520     0.12353    83.13482   171.25480     0.12353
    11.80000    96.87072   188.75241     0.12341    83.12928   171.24759     0.12341
    11.90000    96.87627   188.75963     0.12329    83.12373   171.24037     0.12329
    12.00000    96.88183   188.76687     0.12317    83.11817   171.23313     0.12317
    12.10000    96.88740   188.77412     0.12305    83.11260   171.22588     0.12305
    12.20000    96.89298   188.78139     0.12293    83.10702   171.21861     0.12293
    12.30000    96.89857   188.78867     0.12281    83.10143   171.21133     0.12281
    12.40000    96.90417   188.79596     0.12269    83.09583   171.20404     0.12269
    12.50000    96.90978   188.80327     0.12257    83.09022   171.19673     0.12257
    12.60000    96.91540   188.81059     0.12245    83.08460   171.18941     0.12245
    12.70000    96.92103   188.81792     0.12233    83.07897   171.18208     0.12233
    12.80000    96.92668   188.82527     0.12221    83.07332   171.17473     0.12221
    12.90000    96.93233   188.83263     0.12209    83.06767   171.16737     0.12209
    13.00000    96.93799   188.84001     0.12197    83.06201   171.15999     0.12197
    13.10000    96.94366   188.84739     0.12184    83.05634   171.15261     0.12184
    13.20000    96.94935   188.85480     0.12172    83.05065   171.14520     0.12172
    13.30000    96.95504   188.86221     0.12160    83.04496   171.13779     0.12160
    13.40000    96.96075   188.86965     0.12148    83.03925   171.13035     0.12148
    13.50000    96.96646   188.87709     0.12136    83.03354   171.12291     0.12136
    13.60000    96.97219   188.88455     0.12124    83.02781   171.11545     0.12124
    13.70000    96.97792   188.89202     0.12112    83.02208   171.10798     0.12112
    13.80000    96.98367   188.89951     0.12100    83.01633   171.10049     0.12100
    13.90000    96.98943   188.90701     0.12088    83.01057   171.09299     0.12088
    14.00000    96.99519   188.91453     0.12076    83.00481   171.08547     0.12076
    14.10000    97.00097   188.92206     0.12064    82.99903   171.07794     0.12064
    14.20000    97.00676   188.92960     0.12052    82.99324   171.07040     0.12052
    14.30000    97.01256   188.93716     0.12040    82.98744   171.06284     0.12040
    14.40000    97.01837   188.94473     0.12028    82.98163   171.05527     0.12028
    14.50000    97.02419   188.95232     0.12016    82.97581   171.04768     0.12016
    14.60000    97.03003   188.95992     0.12004    82.96997   171.04008     0.12004
    14.70000    97.03587   188.96754     0.11992    82.96413   171.03246     0.11992
    14.80000    97.04172   188.97517     0.11980    82.95828   171.02483     0.11980
    14.90000    97.04759   188.98281     0.11968    82.95241   171.01719     0.11968
    15.00000    97.05347   188.99047     0.11956    82.94653   171.00953     0.11956
    15.10000    97.05935   188.99815     0.11944    82.94065   171.00185     0.11944
    15.20000    97.06525   189.00584     0.11932    82.93475   170.99416     0.11932
    15.30000    97.07116   189.01354     0.11920    82.92884   170.98646     0.11920
    15.40000    97.07708   189.02126     0.11908    82.92292   170.97874     0.11908
    15.50000    97.08301   189.02900     0.11896    82.91699   170.97100     0.11896
    15.60000    97.08896   189.03675     0.11884    82.91104   170.96325     0.11884
    15.70000    97.09491   189.04451     0.11872    82.90509   170.95549     0.11872
    15.80000    97.10088   189.05229     0.11860    82.89912   170.94771     0.11860
    15.90000    97.10685   189.06008     0.11848    82.89315   170.93992     0.11848
    16.00000    97.11284   189.06789     0.11836    82.88716   170.93211     0.11836
    16.10000    97.11884   189.07572     0.11824    82.88116   170.92428     0.11824
    16.20000    97.12485   189.08356     0.11812    82.87515   170.91644     0.11812
    16.30000    97.13087   189.09141     0.11800    82.86913   170.90859     0.11800
    16.40000    97.13691   189.09928     0.11788    82.86309   170.90072     0.11788
    16.50000    97.14295   189.10717     0.11776    82.85705   170.89283     0.11776
    16.60000    97.14901   189.11507     0.11764    82.85099   170.88493     0.11764
    16.70000    97.15508   189.12298     0.11752    82.84492   170.87702     0.11752
    16.80000    97.16116   189.13091     0.11740    82.83884   170.86909     0.11740
    16.90000    97.16725   189.13886     0.11728    82.83275   170.86114     0.11728
    17.00000    97.17335   189.14682     0.11716    82.82665   170.85318     0.11716
    17.10000    97.17946   189.15480     0.11704    82.82054   170.84520     0.11704
    17.20000    97.18559   189.16280     0.11692    82.81441   170.83720     0.11692
    17.30000    97.19173   189.17080     0.11680    82.80827   170.82920     0.11680
    17.40000    97.19788   189.17883     0.11668    82.80212   170.82117     0.11668
    17.50000    97.20404   189.18687     0.11656    82.79596   170.81313     0.11656
    17.60000    97.21021   189.19493     0.11644    82.78979   170.80507     0.11644
    17.70000    97.21640   189.20300     0.11632    82.78360   170.79700     0.11632
    17.80000    97.22259   189.21109     0.11620    82.77741   170.78891     0.11620
    17.90000    97.22880   189.21919     0.11608    82.77120   170.78081     0.11608
    18.00000    97.23502   189.22731     0.11596    82.76498   170.77269     0.11596
    18.10000    97.24126   189.23545     0.11584    82.75874   170.76455     0.11584
    18.20000    97.24750   189.24360     0.11572    82.75250   170.75640     0.11572
    18.30000    97.25376   189.25177     0.11560    82.74624   170.74823     0.11560
    18.40000    97.26003   189.25996     0.11548    82.73997   170.74004     0.11548
    18.50000    97.26631   189.26816     0.11536    82.73369   170.73184     0.11536
    18.60000    97.27260   189.27637     0.11524    82.72740   170.72363     0.11524
    18.70000    97.27891   189.28461     0.11512    82.72109   170.71539     0.11512
    18.80000    97.28523   189.29286     0.11500    82.71477   170.70714     0.11500
    18.90000    97.29156   189.30112     0.11488    82.70844   170.69888     0.11488
    19.00000    97.29790   189.30941     0.11476    82.70210   170.69059     0.11476
    19.10000    97.30425   189.31771     0.11464    82.69575   170.68229     0.11464
    19.20000    97.31062   189.32602     0.11452    82.68938   170.67398     0.11452
    19.30000    97.31700   189.33436     0.11440    82.68300   170.66564     0.11440
    19.40000    97.32339   189.34271     0.11428    82.67661   170.65729     0.11428
    19.50000    97.32980   189.35107     0.11416    82.67020   170.64893     0.11416
    19.60000    97.33621   189.35946     0.11404    82.66379   170.64054     0.11404
    19.70000    97.34264   189.36786     0.11393    82.65736   170.63214     0.11393
    19.80000    97.34909   189.37627     0.11381    82.65091   170.62373     0.11381
    19.90000    97.35554   189.38471     0.11369    82.64446   170.61529     0.11369
    20.00000    97.36201   189.39316     0.11357    82.63799   170.60684     0.11357
    20.10000    97.36849   189.40163     0.11345    82.63151   170.59837     0.11345
    20.20000    97.37498   189.41011     0.11333    82.62502   170.58989     0.11333
    20.30000    97.38149   189.41861     0.11321    82.61851   170.58139     0.11321
    20.40000    97.38801   189.42713     0.11309    82.61199   170.57287     0.11309
    20.50000    97.39454   189.43567     0.11297    82.60546   170.56433     0.11297
    20.60000    97.40108   189.44422     0.11285    82.59892   170.55578     0.11285
    20.70000    97.40764   189.45280     0.11273    82.59236   170.54720     0.11273
    20.80000    97.41421   189.46138     0.11261    82.58579   170.53862     0.11261
    20.90000    97.42080   189.46999     0.11249    82.57920   170.53001     0.11249
    21.00000    97.42739   189.47861     0.11237    82.57261   170.52139     0.11237
    21.10000    97.43400   189.48726     0.11225    82.56600   170.51274     0.11225
    21.20000    97.44062   189.49592     0.11213    82.55938   170.50408     0.11213
    21.30000    97.44726   189.50459     0.11201    82.55274   170.49541     0.11201
    21.40000    97.45391   189.51329     0.11190    82.54609   170.48671     0.11190
    21.50000    97.46057   189.52200     0.11178    82.53943   170.47800     0.11178
    21.60000    97.46725   189.53073     0.11166    82.53275   170.46927     0.11166
    21.70000    97.47394   189.53948     0.11154    82.52606   170.46052     0.11154
    21.80000    97.48064   189.54824     0.11142    82.51936   170.45176     0.11142
    21.90000    97.48736   189.55703     0.11130    82.51264   170.44297     0.11130
    22.00000    97.49409   189.56583     0.11118    82.50591   170.43417     0.11118
    22.10000    97.50083   189.57465     0.11106    82.49917   170.42535     0.11106
    22.20000    97.50759   189.58349     0.11094    82.49241   170.41651     0.11094
    22.30000    97.51436   189.59235     0.11082    82.48564   170.40765     0.11082
    22.40000    97.52114   189.60122     0.11070    82.47886   170.39878     0.11070
    22.50000    97.52794   189.61012     0.11058    82.47206   170.38988     0.11058
    22.60000    97.53475   189.61903     0.11047    82.46525   170.38097     0.11047
    22.70000    97.54157   189.62796     0.11035    82.45843   170.37204     0.11035
    22.80000    97.54841   189.63691     0.11023    82.45159   170.36309     0.11023
    22.90000    97.55527   189.64587     0.11011    82.44473   170.35413     0.11011
    23.00000    97.56213   189.65486     0.10999    82.43787   170.34514     0.10999
    23.10000    97.56901   189.66387     0.10987    82.43099   170.33613     0.10987
    23.20000    97.57591   189.67289     0.10975    82.42409   170.32711     0.10975
    23.30000    97.58281   189.68193     0.10963    82.41719   170.31807     0.10963
