 # applied field (T), theta (degree), phi (degree), abs [muB/unitcell], abs [T]
       0.00000000       0.00000000       0.00000000      43.98488140       1.47040583
       0.10000000       0.45627121      45.00000000      43.98488782       1.47040604
       0.20000000       0.85560362      45.00000000      43.98490420       1.47040659
       0.30000000       1.31188204      45.00000000      43.98493483       1.47040761
       0.40000000       1.71122485      45.00000000      43.98497261       1.47040888
       0.50000000       2.16751987      45.00000000      43.98502744       1.47041071
       0.60000000       2.56688129      45.00000000      43.98508664       1.47041269
       0.70000000       3.02320228      45.00000000      43.98516568       1.47041533
       0.80000000       3.47954094      45.00000000      43.98525759       1.47041840
       0.90000000       3.87894678      45.00000000      43.98534956       1.47042148
       1.00000000       4.33532572      45.00000000      43.98546569       1.47042536
       1.10000000       4.79172993      45.00000000      43.98559468       1.47042967
       1.20000000       5.19119929      45.00000000      43.98571945       1.47043384
       1.30000000      90.00000000       6.89710227      43.98945592       1.47055875
       1.40000000      90.00000000       7.75915674      43.98966818       1.47056585
       1.50000000      90.00000000      82.24038220      43.98970338       1.47056702
       1.60000000      90.00000000       8.62175907      43.98993700       1.47057483
       1.70000000      90.00000000       8.62221213      43.98997293       1.47057603
       1.80000000      90.00000000       9.48445151      43.99022763       1.47058455
       1.90000000      90.00000000       9.48489647      43.99026427       1.47058577
       2.00000000      90.00000000      79.65275496      43.99053976       1.47059498
       2.10000000      90.00000000      10.34768179      43.99057707       1.47059623
       2.20000000      90.00000000      11.21015038      43.99087301       1.47060612
       2.30000000      90.00000000      78.78942117      43.99091095       1.47060739
       2.40000000      90.00000000      77.92682203      43.99122695       1.47061796
       2.50000000      90.00000000      12.07359800      43.99126548       1.47061924
       2.60000000      90.00000000      77.06366209      43.99160109       1.47063046
       2.70000000      90.00000000      12.93674942      43.99164018       1.47063177
       2.80000000      90.00000000      13.79963996      43.99199489       1.47064363
       2.90000000      90.00000000      13.80004283      43.99203450       1.47064495
       3.00000000      90.00000000      14.66309349      43.99240773       1.47065743
       3.10000000      90.00000000      74.47367784      43.99279838       1.47067049
       3.20000000      90.00000000      15.52670744      43.99283894       1.47067184
       3.30000000      90.00000000      73.60988600      43.99324676       1.47068548
       3.40000000      90.00000000      73.60950973      43.99328772       1.47068685
       3.50000000      90.00000000      17.25408282      43.99371189       1.47070103
       3.60000000      90.00000000      72.74555006      43.99375323       1.47070241
       3.70000000      90.00000000      71.88176396      43.99419284       1.47071711
       3.80000000      90.00000000      71.88140611      43.99423451       1.47071850
       3.90000000      90.00000000      71.01741951      43.99468855       1.47073368
       4.00000000      90.00000000      18.98292891      43.99473052       1.47073508
       4.10000000      90.00000000      19.84712234      43.99519787       1.47075070
       4.20000000      90.00000000      70.15253880      43.99524010       1.47075212
       4.30000000      90.00000000      20.71186708      43.99571954       1.47076814
       4.40000000      90.00000000      69.28780377      43.99576199       1.47076956
       4.50000000      90.00000000      21.57681947      43.99625219       1.47078595
       4.60000000      90.00000000      21.57713876      43.99629483       1.47078737
       4.70000000      90.00000000      67.55801650      43.99679435       1.47080407
       4.80000000      90.00000000      22.44229278      43.99683715       1.47080550
       4.90000000      90.00000000      23.30736229      43.99734444       1.47082246
       5.00000000      90.00000000      66.69233860      43.99738736       1.47082390
       5.10000000      90.00000000      65.82704187      43.99790076       1.47084106
       5.20000000      90.00000000      24.17324691      43.99794378       1.47084250
       5.30000000      90.00000000      64.96122766      43.99846152       1.47085981
       5.40000000      90.00000000      64.09546241      43.99898170       1.47087720
       5.50000000      90.00000000      25.90480530      43.99902482       1.47087864
       5.60000000      90.00000000      63.22920053      43.99954554       1.47089605
       5.70000000      90.00000000      63.22894362      43.99958867       1.47089749
       5.80000000      90.00000000      62.36272205      44.00010788       1.47091484
       5.90000000      90.00000000      61.49626461      44.00062347       1.47093208
       6.00000000      90.00000000      61.49602974      44.00066656       1.47093352
       6.10000000      90.00000000      29.37064894      44.00117634       1.47095056
       6.20000000      90.00000000      60.62912747      44.00121937       1.47095200
       6.30000000      90.00000000      30.23776760      44.00172108       1.47096877
       6.40000000      90.00000000      58.89511538      44.00221251       1.47098520
       6.50000000      90.00000000      31.10508522      44.00225539       1.47098664
       6.60000000      90.00000000      31.97240563      44.00273418       1.47100264
       6.70000000      90.00000000      32.83993297      44.00319810       1.47101815
       6.80000000      90.00000000      33.70765804      44.00364488       1.47103309
       6.90000000      90.00000000      56.29217694      44.00368745       1.47103451
       7.00000000      90.00000000      34.57572341      44.00411473       1.47104879
       7.10000000      90.00000000      35.44379956      44.00452043       1.47106235
       7.20000000      90.00000000      53.68796102      44.00490242       1.47107512
       7.30000000      90.00000000      52.81957191      44.00525868       1.47108703
       7.40000000      90.00000000      38.91750568      44.00584465       1.47110662
       7.50000000      90.00000000      50.21373439      44.00611299       1.47111559
       7.60000000      90.00000000      48.47602532      44.00650948       1.47112885
       7.70000000      90.00000000      45.00000000      44.00684054       1.47113992
       7.80000000      90.00000000      45.00000000      44.00688208       1.47114130
       7.90000000      90.00000000      45.00000000      44.00692363       1.47114269
       8.00000000      90.00000000      45.00000000      44.00696518       1.47114408
       8.10000000      90.00000000      45.00000000      44.00700674       1.47114547
       8.20000000      90.00000000      45.00000000      44.00704830       1.47114686
       8.30000000      90.00000000      45.00000000      44.00708987       1.47114825
       8.40000000      90.00000000      45.00000000      44.00713144       1.47114964
       8.50000000      90.00000000      45.00000000      44.00717301       1.47115103
       8.60000000      90.00000000      45.00000000      44.00721459       1.47115242
       8.70000000      90.00000000      45.00000000      44.00725617       1.47115381
       8.80000000      90.00000000      45.00000000      44.00729776       1.47115520
       8.90000000      90.00000000      45.00000000      44.00733935       1.47115659
       9.00000000      90.00000000      45.00000000      44.00738095       1.47115798
       9.10000000      90.00000000      45.00000000      44.00742255       1.47115937
       9.20000000      90.00000000      45.00000000      44.00746416       1.47116076
       9.30000000      90.00000000      45.00000000      44.00750577       1.47116215
       9.40000000      90.00000000      45.00000000      44.00754738       1.47116355
       9.50000000      90.00000000      45.00000000      44.00758900       1.47116494
       9.60000000      90.00000000      45.00000000      44.00763063       1.47116633
       9.70000000      90.00000000      45.00000000      44.00767225       1.47116772
       9.80000000      90.00000000      45.00000000      44.00771389       1.47116911
       9.90000000      90.00000000      45.00000000      44.00775552       1.47117050
      10.00000000      90.00000000      45.00000000      44.00779716       1.47117190
      10.10000000      90.00000000      45.00000000      44.00783881       1.47117329
      10.20000000      90.00000000      45.00000000      44.00788046       1.47117468
      10.30000000      90.00000000      45.00000000      44.00792212       1.47117607
      10.40000000      90.00000000      45.00000000      44.00796377       1.47117747
      10.50000000      90.00000000      45.00000000      44.00800544       1.47117886
      10.60000000      90.00000000      45.00000000      44.00804711       1.47118025
      10.70000000      90.00000000      45.00000000      44.00808878       1.47118164
      10.80000000      90.00000000      45.00000000      44.00813046       1.47118304
      10.90000000      90.00000000      45.00000000      44.00817214       1.47118443
      11.00000000      90.00000000      45.00000000      44.00821382       1.47118582
      11.10000000      90.00000000      45.00000000      44.00825552       1.47118722
      11.20000000      90.00000000      45.00000000      44.00829721       1.47118861
      11.30000000      90.00000000      45.00000000      44.00833891       1.47119001
      11.40000000      90.00000000      45.00000000      44.00838061       1.47119140
      11.50000000      90.00000000      45.00000000      44.00842232       1.47119279
      11.60000000      90.00000000      45.00000000      44.00846404       1.47119419
      11.70000000      90.00000000      45.00000000      44.00850575       1.47119558
      11.80000000      90.00000000      45.00000000      44.00854748       1.47119698
      11.90000000      90.00000000      45.00000000      44.00858920       1.47119837
      12.00000000      90.00000000      45.00000000      44.00863093       1.47119977
      12.10000000      90.00000000      45.00000000      44.00867267       1.47120116
      12.20000000      90.00000000      45.00000000      44.00871441       1.47120256
      12.30000000      90.00000000      45.00000000      44.00875615       1.47120395
      12.40000000      90.00000000      45.00000000      44.00879790       1.47120535
      12.50000000      90.00000000      45.00000000      44.00883965       1.47120675
      12.60000000      90.00000000      45.00000000      44.00888141       1.47120814
      12.70000000      90.00000000      45.00000000      44.00892318       1.47120954
      12.80000000      90.00000000      45.00000000      44.00896494       1.47121093
      12.90000000      90.00000000      45.00000000      44.00900671       1.47121233
      13.00000000      90.00000000      45.00000000      44.00904849       1.47121373
      13.10000000      90.00000000      45.00000000      44.00909027       1.47121512
      13.20000000      90.00000000      45.00000000      44.00913205       1.47121652
      13.30000000      90.00000000      45.00000000      44.00917384       1.47121792
      13.40000000      90.00000000      45.00000000      44.00921564       1.47121931
      13.50000000      90.00000000      45.00000000      44.00925744       1.47122071
      13.60000000      90.00000000      45.00000000      44.00929924       1.47122211
      13.70000000      90.00000000      45.00000000      44.00934105       1.47122351
      13.80000000      90.00000000      45.00000000      44.00938286       1.47122491
      13.90000000      90.00000000      45.00000000      44.00942467       1.47122630
      14.00000000      90.00000000      45.00000000      44.00946650       1.47122770
      14.10000000      90.00000000      45.00000000      44.00950832       1.47122910
      14.20000000      90.00000000      45.00000000      44.00955015       1.47123050
      14.30000000      90.00000000      45.00000000      44.00959199       1.47123190
      14.40000000      90.00000000      45.00000000      44.00963382       1.47123329
      14.50000000      90.00000000      45.00000000      44.00967567       1.47123469
      14.60000000      90.00000000      45.00000000      44.00971752       1.47123609
      14.70000000      90.00000000      45.00000000      44.00975937       1.47123749
      14.80000000      90.00000000      45.00000000      44.00980122       1.47123889
      14.90000000      90.00000000      45.00000000      44.00984309       1.47124029
      15.00000000      90.00000000      45.00000000      44.00988495       1.47124169
      15.10000000      90.00000000      45.00000000      44.00992682       1.47124309
      15.20000000      90.00000000      45.00000000      44.00996870       1.47124449
      15.30000000      90.00000000      45.00000000      44.01001058       1.47124589
      15.40000000      90.00000000      45.00000000      44.01005246       1.47124729
      15.50000000      90.00000000      45.00000000      44.01009435       1.47124869
      15.60000000      90.00000000      45.00000000      44.01013624       1.47125009
      15.70000000      90.00000000      45.00000000      44.01017814       1.47125149
      15.80000000      90.00000000      45.00000000      44.01022004       1.47125289
      15.90000000      90.00000000      45.00000000      44.01026195       1.47125429
      16.00000000      90.00000000      45.00000000      44.01030386       1.47125569
      16.10000000      90.00000000      45.00000000      44.01034578       1.47125710
      16.20000000      90.00000000      45.00000000      44.01038770       1.47125850
      16.30000000      90.00000000      45.00000000      44.01042962       1.47125990
      16.40000000      90.00000000      45.00000000      44.01047155       1.47126130
      16.50000000      90.00000000      45.00000000      44.01051348       1.47126270
      16.60000000      90.00000000      45.00000000      44.01055542       1.47126410
      16.70000000      90.00000000      45.00000000      44.01059737       1.47126551
      16.80000000      90.00000000      45.00000000      44.01063931       1.47126691
      16.90000000      90.00000000      45.00000000      44.01068127       1.47126831
      17.00000000      90.00000000      45.00000000      44.01072322       1.47126971
      17.10000000      90.00000000      45.00000000      44.01076518       1.47127112
      17.20000000      90.00000000      45.00000000      44.01080715       1.47127252
      17.30000000      90.00000000      45.00000000      44.01084912       1.47127392
      17.40000000      90.00000000      45.00000000      44.01089109       1.47127533
      17.50000000      90.00000000      45.00000000      44.01093307       1.47127673
      17.60000000      90.00000000      45.00000000      44.01097506       1.47127813
      17.70000000      90.00000000      45.00000000      44.01101705       1.47127954
      17.80000000      90.00000000      45.00000000      44.01105904       1.47128094
      17.90000000      90.00000000      45.00000000      44.01110104       1.47128234
      18.00000000      90.00000000      45.00000000      44.01114304       1.47128375
      18.10000000      90.00000000      45.00000000      44.01118504       1.47128515
      18.20000000      90.00000000      45.00000000      44.01122705       1.47128656
      18.30000000      90.00000000      45.00000000      44.01126907       1.47128796
      18.40000000      90.00000000      45.00000000      44.01131109       1.47128937
      18.50000000      90.00000000      45.00000000      44.01135312       1.47129077
      18.60000000      90.00000000      45.00000000      44.01139514       1.47129218
      18.70000000      90.00000000      45.00000000      44.01143718       1.47129358
      18.80000000      90.00000000      45.00000000      44.01147922       1.47129499
      18.90000000      90.00000000      45.00000000      44.01152126       1.47129639
      19.00000000      90.00000000      45.00000000      44.01156331       1.47129780
      19.10000000      90.00000000      45.00000000      44.01160536       1.47129920
      19.20000000      90.00000000      45.00000000      44.01164742       1.47130061
      19.30000000      90.00000000      45.00000000      44.01168948       1.47130201
      19.40000000      90.00000000      45.00000000      44.01173154       1.47130342
      19.50000000      90.00000000      45.00000000      44.01177361       1.47130483
      19.60000000      90.00000000      45.00000000      44.01181569       1.47130623
      19.70000000      90.00000000      45.00000000      44.01185777       1.47130764
      19.80000000      90.00000000      45.00000000      44.01189985       1.47130905
      19.90000000      90.00000000      45.00000000      44.01194194       1.47131045
      20.00000000      90.00000000      45.00000000      44.01198403       1.47131186
      20.10000000      90.00000000      45.00000000      44.01202613       1.47131327
      20.20000000      90.00000000      45.00000000      44.01206823       1.47131468
      20.30000000      90.00000000      45.00000000      44.01211034       1.47131608
      20.40000000      90.00000000      45.00000000      44.01215245       1.47131749
      20.50000000      90.00000000      45.00000000      44.01219457       1.47131890
      20.60000000      90.00000000      45.00000000      44.01223669       1.47132031
      20.70000000      90.00000000      45.00000000      44.01227881       1.47132172
      20.80000000      90.00000000      45.00000000      44.01232094       1.47132312
      20.90000000      90.00000000      45.00000000      44.01236308       1.47132453
      21.00000000      90.00000000      45.00000000      44.01240522       1.47132594
      21.10000000      90.00000000      45.00000000      44.01244736       1.47132735
      21.20000000      90.00000000      45.00000000      44.01248951       1.47132876
      21.30000000      90.00000000      45.00000000      44.01253166       1.47133017
      21.40000000      90.00000000      45.00000000      44.01257382       1.47133158
      21.50000000      90.00000000      45.00000000      44.01261598       1.47133299
      21.60000000      90.00000000      45.00000000      44.01265814       1.47133440
      21.70000000      90.00000000      45.00000000      44.01270032       1.47133581
      21.80000000      90.00000000      45.00000000      44.01274249       1.47133722
      21.90000000      90.00000000      45.00000000      44.01278467       1.47133863
      22.00000000      90.00000000      45.00000000      44.01282686       1.47134004
      22.10000000      90.00000000      45.00000000      44.01286905       1.47134145
      22.20000000      90.00000000      45.00000000      44.01291124       1.47134286
      22.30000000      90.00000000      45.00000000      44.01295344       1.47134427
      22.40000000      90.00000000      45.00000000      44.01299564       1.47134568
      22.50000000      90.00000000      45.00000000      44.01303785       1.47134709
      22.60000000      90.00000000      45.00000000      44.01308006       1.47134850
      22.70000000      90.00000000      45.00000000      44.01312228       1.47134991
      22.80000000      90.00000000      45.00000000      44.01316450       1.47135132
      22.90000000      90.00000000      45.00000000      44.01320672       1.47135274
      23.00000000      90.00000000      45.00000000      44.01324896       1.47135415
