 # applied field (T), theta (degree), phi (degree), abs [muB/unitcell], abs [T]
       0.00000000       0.00000000       0.00000000      48.15887480       1.65711996
       0.10000000       0.74246328     360.00000000      48.15943839       1.65713936
       0.20000000       1.42785911     360.00000000      48.15991309       1.65715569
       0.30000000       2.17032638     360.00000000      48.16037682       1.65717165
       0.40000000       2.91280085     360.00000000      48.16078872       1.65718582
       0.50000000       3.59821599     360.00000000      48.16112441       1.65719737
       0.60000000       4.34071403     360.00000000      48.16143759       1.65720815
       0.70000000       5.08322938     360.00000000      48.16169988       1.65721717
       0.80000000       5.76869097     360.00000000      48.16189915       1.65722403
       0.90000000       6.51124903     360.00000000      48.16206527       1.65722975
       1.00000000       7.25383419     360.00000000      48.16218218       1.65723377
       1.10000000       7.99644970     360.00000000      48.16225062       1.65723612
       1.20000000       8.73909878     360.00000000      48.16227138       1.65723684
       1.30000000       9.48178457     360.00000000      48.16224534       1.65723594
       1.40000000      10.22451015     360.00000000      48.16217345       1.65723347
       1.50000000      11.02437253     360.00000000      48.16204264       1.65722897
       1.60000000      11.76719044     360.00000000      48.16187865       1.65722332
       1.70000000      12.51005721     360.00000000      48.16167215       1.65721622
       1.80000000      13.31008186     360.00000000      48.16139970       1.65720684
       1.90000000      14.11017007     360.00000000      48.16108049       1.65719586
       2.00000000      14.85320908     360.00000000      48.16074764       1.65718441
       2.10000000      15.65342888     360.00000000      48.16034314       1.65717049
       2.20000000      16.45372151     360.00000000      48.15989686       1.65715513
       2.30000000      17.31122229     360.00000000      48.15936981       1.65713700
       2.40000000      18.11167504     360.00000000      48.15884256       1.65711885
       2.50000000      18.96935396     360.00000000      48.15823265       1.65709787
       2.60000000      19.76997816     360.00000000      48.15763247       1.65707722
       2.70000000      20.68500515     360.00000000      48.15689658       1.65705189
       2.80000000      21.54298296     360.00000000      48.15617517       1.65702707
       2.90000000      22.40106560     360.00000000      48.15542136       1.65700113
       3.00000000      23.31643607     360.00000000      48.15457871       1.65697214
       3.10000000      24.23193128     360.00000000      48.15370438       1.65694205
       3.20000000      25.20475096     360.00000000      48.15273830       1.65690881
       3.30000000      26.12051016     360.00000000      48.15180734       1.65687678
       3.40000000      27.15083008     360.00000000      48.15072059       1.65683938
       3.50000000      28.12409279     360.00000000      48.14967536       1.65680342
       3.60000000      29.15473992       0.00000000      48.14854083       1.65676438
       3.70000000      30.24280117     360.00000000      48.14731645       1.65672225
       3.80000000      31.33105222     360.00000000      48.14607388       1.65667949
       3.90000000      32.47675803     360.00000000      48.14474446       1.65663375
       4.00000000      33.67994947     360.00000000      48.14332949       1.65658506
       4.10000000      34.88336923     360.00000000      48.14190452       1.65653603
       4.20000000      36.14431291     360.00000000      48.14039939       1.65648424
       4.30000000      37.46280936     360.00000000      48.13881680       1.65642978
       4.40000000      38.89620935     360.00000000      48.13708565       1.65637021
       4.50000000      40.38723901     360.00000000      48.13528379       1.65630821
       4.60000000      41.93592025     360.00000000      48.13341532       1.65624392
       4.70000000      43.65699132     360.00000000      48.13133712       1.65617241
       4.80000000      45.49316377     360.00000000      48.12912911       1.65609643
       4.90000000      47.50185999     360.00000000      48.12672483       1.65601370
       5.00000000      49.74053553     360.00000000      48.12406077       1.65592203
       5.10000000      52.32407720     360.00000000      48.12100627       1.65581693
       5.20000000      55.30999755     360.00000000      48.11750869       1.65569658
       5.30000000      59.04291823     360.00000000      48.11317683       1.65554752
       5.40000000      64.21211821     360.00000000      48.10724212       1.65534331
       5.50000000      73.74672214     360.00000000      48.09639533       1.65497008
       5.60000000      90.00000000     360.00000000      48.07802644       1.65433802
       5.70000000      90.00000000     360.00000000      48.07822903       1.65434499
       5.80000000      90.00000000     360.00000000      48.07843159       1.65435196
       5.90000000      90.00000000     360.00000000      48.07863412       1.65435893
       6.00000000      90.00000000     360.00000000      48.07883663       1.65436590
       6.10000000      90.00000000     360.00000000      48.07903911       1.65437286
       6.20000000      90.00000000     360.00000000      48.07924156       1.65437983
       6.30000000      90.00000000     360.00000000      48.07944398       1.65438679
       6.40000000      90.00000000     360.00000000      48.07964637       1.65439376
       6.50000000      90.00000000     360.00000000      48.07984874       1.65440072
       6.60000000      90.00000000     360.00000000      48.08005108       1.65440768
       6.70000000      90.00000000     360.00000000      48.08025339       1.65441464
       6.80000000      90.00000000     360.00000000      48.08045567       1.65442161
       6.90000000      90.00000000     360.00000000      48.08065793       1.65442856
       7.00000000      90.00000000     360.00000000      48.08086016       1.65443552
       7.10000000      90.00000000     360.00000000      48.08106236       1.65444248
       7.20000000      90.00000000     360.00000000      48.08126453       1.65444944
       7.30000000      90.00000000     360.00000000      48.08146667       1.65445639
       7.40000000      90.00000000     360.00000000      48.08166879       1.65446335
       7.50000000      90.00000000     360.00000000      48.08187088       1.65447030
       7.60000000      90.00000000     360.00000000      48.08207294       1.65447725
       7.70000000      90.00000000     360.00000000      48.08227497       1.65448421
       7.80000000      90.00000000     360.00000000      48.08247698       1.65449116
       7.90000000      90.00000000     360.00000000      48.08267896       1.65449811
       8.00000000      90.00000000     360.00000000      48.08288091       1.65450506
       8.10000000      90.00000000     360.00000000      48.08308283       1.65451200
       8.20000000      90.00000000     360.00000000      48.08328472       1.65451895
       8.30000000      90.00000000     360.00000000      48.08348659       1.65452590
       8.40000000      90.00000000     360.00000000      48.08368843       1.65453284
       8.50000000      90.00000000     360.00000000      48.08389024       1.65453979
       8.60000000      90.00000000     360.00000000      48.08409203       1.65454673
       8.70000000      90.00000000     360.00000000      48.08429379       1.65455367
       8.80000000      90.00000000     360.00000000      48.08449552       1.65456061
       8.90000000      90.00000000     360.00000000      48.08469722       1.65456755
       9.00000000      90.00000000     360.00000000      48.08489889       1.65457449
       9.10000000      90.00000000     360.00000000      48.08510054       1.65458143
       9.20000000      90.00000000     360.00000000      48.08530216       1.65458837
       9.30000000      90.00000000     360.00000000      48.08550375       1.65459531
       9.40000000      90.00000000     360.00000000      48.08570531       1.65460224
       9.50000000      90.00000000     360.00000000      48.08590685       1.65460918
       9.60000000      90.00000000     360.00000000      48.08610836       1.65461611
       9.70000000      90.00000000     360.00000000      48.08630984       1.65462304
       9.80000000      90.00000000     360.00000000      48.08651130       1.65462998
       9.90000000      90.00000000     360.00000000      48.08671272       1.65463691
      10.00000000      90.00000000     360.00000000      48.08691412       1.65464384
      10.10000000      90.00000000     360.00000000      48.08711549       1.65465077
      10.20000000      90.00000000     360.00000000      48.08731684       1.65465769
      10.30000000      90.00000000     360.00000000      48.08751815       1.65466462
      10.40000000      90.00000000     360.00000000      48.08771944       1.65467155
      10.50000000      90.00000000     360.00000000      48.08792071       1.65467847
      10.60000000      90.00000000     360.00000000      48.08812194       1.65468540
      10.70000000      90.00000000     360.00000000      48.08832315       1.65469232
      10.80000000      90.00000000     360.00000000      48.08852433       1.65469924
      10.90000000      90.00000000     360.00000000      48.08872548       1.65470616
      11.00000000      90.00000000     360.00000000      48.08892661       1.65471309
      11.10000000      90.00000000     360.00000000      48.08912770       1.65472001
      11.20000000      90.00000000     360.00000000      48.08932878       1.65472692
      11.30000000      90.00000000     360.00000000      48.08952982       1.65473384
      11.40000000      90.00000000     360.00000000      48.08973083       1.65474076
      11.50000000      90.00000000     360.00000000      48.08993182       1.65474767
      11.60000000      90.00000000     360.00000000      48.09013278       1.65475459
      11.70000000      90.00000000     360.00000000      48.09033372       1.65476150
      11.80000000      90.00000000     360.00000000      48.09053462       1.65476842
      11.90000000      90.00000000     360.00000000      48.09073550       1.65477533
      12.00000000      90.00000000     360.00000000      48.09093636       1.65478224
      12.10000000      90.00000000     360.00000000      48.09113718       1.65478915
      12.20000000      90.00000000     360.00000000      48.09133798       1.65479606
      12.30000000      90.00000000     360.00000000      48.09153875       1.65480297
      12.40000000      90.00000000     360.00000000      48.09173949       1.65480988
      12.50000000      90.00000000     360.00000000      48.09194021       1.65481678
      12.60000000      90.00000000     360.00000000      48.09214090       1.65482369
      12.70000000      90.00000000     360.00000000      48.09234156       1.65483059
      12.80000000      90.00000000     360.00000000      48.09254219       1.65483750
      12.90000000      90.00000000     360.00000000      48.09274280       1.65484440
      13.00000000      90.00000000     360.00000000      48.09294338       1.65485130
      13.10000000      90.00000000     360.00000000      48.09314393       1.65485820
      13.20000000      90.00000000     360.00000000      48.09334446       1.65486510
      13.30000000      90.00000000     360.00000000      48.09354496       1.65487200
      13.40000000      90.00000000     360.00000000      48.09374543       1.65487890
      13.50000000      90.00000000     360.00000000      48.09394588       1.65488580
      13.60000000      90.00000000     360.00000000      48.09414629       1.65489269
      13.70000000      90.00000000     360.00000000      48.09434668       1.65489959
      13.80000000      90.00000000     360.00000000      48.09454705       1.65490648
      13.90000000      90.00000000     360.00000000      48.09474738       1.65491338
      14.00000000      90.00000000     360.00000000      48.09494769       1.65492027
      14.10000000      90.00000000     360.00000000      48.09514797       1.65492716
      14.20000000      90.00000000     360.00000000      48.09534823       1.65493405
      14.30000000      90.00000000     360.00000000      48.09554846       1.65494094
      14.40000000      90.00000000     360.00000000      48.09574866       1.65494783
      14.50000000      90.00000000     360.00000000      48.09594883       1.65495472
      14.60000000      90.00000000     360.00000000      48.09614898       1.65496160
      14.70000000      90.00000000     360.00000000      48.09634910       1.65496849
      14.80000000      90.00000000     360.00000000      48.09654919       1.65497537
      14.90000000      90.00000000     360.00000000      48.09674926       1.65498226
      15.00000000      90.00000000     360.00000000      48.09694930       1.65498914
      15.10000000      90.00000000     360.00000000      48.09714931       1.65499602
      15.20000000      90.00000000     360.00000000      48.09734930       1.65500291
      15.30000000      90.00000000     360.00000000      48.09754926       1.65500979
      15.40000000      90.00000000     360.00000000      48.09774919       1.65501667
      15.50000000      90.00000000     360.00000000      48.09794909       1.65502354
      15.60000000      90.00000000     360.00000000      48.09814897       1.65503042
      15.70000000      90.00000000     360.00000000      48.09834882       1.65503730
      15.80000000      90.00000000     360.00000000      48.09854864       1.65504417
      15.90000000      90.00000000     360.00000000      48.09874844       1.65505105
      16.00000000      90.00000000     360.00000000      48.09894821       1.65505792
      16.10000000      90.00000000     360.00000000      48.09914795       1.65506480
      16.20000000      90.00000000     360.00000000      48.09934767       1.65507167
      16.30000000      90.00000000     360.00000000      48.09954736       1.65507854
      16.40000000      90.00000000     360.00000000      48.09974702       1.65508541
      16.50000000      90.00000000     360.00000000      48.09994666       1.65509228
      16.60000000      90.00000000     360.00000000      48.10014627       1.65509915
      16.70000000      90.00000000     360.00000000      48.10034585       1.65510602
      16.80000000      90.00000000     360.00000000      48.10054541       1.65511288
      16.90000000      90.00000000     360.00000000      48.10074494       1.65511975
      17.00000000      90.00000000     360.00000000      48.10094444       1.65512661
      17.10000000      90.00000000     360.00000000      48.10114391       1.65513348
      17.20000000      90.00000000     360.00000000      48.10134336       1.65514034
      17.30000000      90.00000000     360.00000000      48.10154279       1.65514720
      17.40000000      90.00000000     360.00000000      48.10174218       1.65515406
      17.50000000      90.00000000     360.00000000      48.10194155       1.65516092
      17.60000000      90.00000000     360.00000000      48.10214089       1.65516778
      17.70000000      90.00000000     360.00000000      48.10234021       1.65517464
      17.80000000      90.00000000     360.00000000      48.10253950       1.65518150
      17.90000000      90.00000000     360.00000000      48.10273876       1.65518835
      18.00000000      90.00000000     360.00000000      48.10293799       1.65519521
      18.10000000      90.00000000     360.00000000      48.10313720       1.65520206
      18.20000000      90.00000000     360.00000000      48.10333638       1.65520892
      18.30000000      90.00000000     360.00000000      48.10353554       1.65521577
      18.40000000      90.00000000     360.00000000      48.10373467       1.65522262
      18.50000000      90.00000000     360.00000000      48.10393377       1.65522947
      18.60000000      90.00000000     360.00000000      48.10413285       1.65523632
      18.70000000      90.00000000     360.00000000      48.10433190       1.65524317
      18.80000000      90.00000000     360.00000000      48.10453092       1.65525002
      18.90000000      90.00000000     360.00000000      48.10472991       1.65525687
      19.00000000      90.00000000     360.00000000      48.10492888       1.65526371
      19.10000000      90.00000000     360.00000000      48.10512783       1.65527056
      19.20000000      90.00000000     360.00000000      48.10532674       1.65527741
      19.30000000      90.00000000     360.00000000      48.10552563       1.65528425
      19.40000000      90.00000000     360.00000000      48.10572450       1.65529109
      19.50000000      90.00000000     360.00000000      48.10592333       1.65529793
      19.60000000      90.00000000     360.00000000      48.10612214       1.65530477
      19.70000000      90.00000000     360.00000000      48.10632093       1.65531161
      19.80000000      90.00000000     360.00000000      48.10651968       1.65531845
      19.90000000      90.00000000     360.00000000      48.10671842       1.65532529
      20.00000000      90.00000000     360.00000000      48.10691712       1.65533213
      20.10000000      90.00000000     360.00000000      48.10711580       1.65533897
      20.20000000      90.00000000     360.00000000      48.10731445       1.65534580
      20.30000000      90.00000000     360.00000000      48.10751308       1.65535264
      20.40000000      90.00000000     360.00000000      48.10771167       1.65535947
      20.50000000      90.00000000     360.00000000      48.10791025       1.65536630
      20.60000000      90.00000000     360.00000000      48.10810879       1.65537313
      20.70000000      90.00000000     360.00000000      48.10830731       1.65537996
      20.80000000      90.00000000     360.00000000      48.10850581       1.65538679
      20.90000000      90.00000000     360.00000000      48.10870427       1.65539362
      21.00000000      90.00000000     360.00000000      48.10890271       1.65540045
      21.10000000      90.00000000     360.00000000      48.10910113       1.65540728
      21.20000000      90.00000000     360.00000000      48.10929952       1.65541411
      21.30000000      90.00000000     360.00000000      48.10949788       1.65542093
      21.40000000      90.00000000     360.00000000      48.10969621       1.65542776
      21.50000000      90.00000000     360.00000000      48.10989452       1.65543458
      21.60000000      90.00000000     360.00000000      48.11009280       1.65544140
      21.70000000      90.00000000     360.00000000      48.11029106       1.65544822
      21.80000000      90.00000000     360.00000000      48.11048929       1.65545505
      21.90000000      90.00000000     360.00000000      48.11068749       1.65546187
      22.00000000      90.00000000     360.00000000      48.11088567       1.65546868
      22.10000000      90.00000000     360.00000000      48.11108382       1.65547550
      22.20000000      90.00000000     360.00000000      48.11128195       1.65548232
      22.30000000      90.00000000     360.00000000      48.11148005       1.65548914
      22.40000000      90.00000000     360.00000000      48.11167812       1.65549595
      22.50000000      90.00000000     360.00000000      48.11187617       1.65550277
      22.60000000      90.00000000     360.00000000      48.11207419       1.65550958
      22.70000000      90.00000000     360.00000000      48.11227218       1.65551639
      22.80000000      90.00000000     360.00000000      48.11247015       1.65552321
      22.90000000      90.00000000     360.00000000      48.11266809       1.65553002
      23.00000000      90.00000000     360.00000000      48.11286601       1.65553683
