 # applied field (T), theta (degree), phi (degree), abs for RE 3-4
     0.00000    10.40475   135.00000     0.03142    10.40475    45.00000     0.03142
     0.10000    10.66972   140.11833     0.03154    10.21110    50.40082     0.03137
     0.20000    11.00633   144.88640     0.03167    10.11240    55.98228     0.03132
     0.30000    11.40342   149.28017     0.03180    10.11327    61.63438     0.03127
     0.40000    11.85013   153.29788     0.03193    10.21502    67.23726     0.03123
     0.50000    12.33636   156.95363     0.03206    10.41551    72.67539     0.03119
     0.60000    12.85310   160.27148     0.03219    10.70953    77.85059     0.03116
     0.70000    13.39244   163.28067     0.03232    11.08949    82.69041     0.03114
     0.80000    13.94760   166.01218     0.03245    11.54634    87.15061     0.03111
     0.90000    14.51284   168.49658     0.03258    12.07041    91.21261     0.03110
     1.00000    15.08331   170.76270     0.03271    12.65209    94.87822     0.03108
     1.10000    15.65498   172.83697     0.03283    13.28229    98.16344     0.03108
     1.20000    16.29818   174.89383     0.03297    14.01154   101.44229     0.03107
     1.30000    16.86199   176.63898     0.03309    14.71831   104.01304     0.03107
     1.40000    17.49024   178.38076     0.03321    15.51635   106.57529     0.03108
     1.50000    18.03624   179.87903     0.03332    16.27111   108.56165     0.03109
     1.60000    18.64066   181.38515     0.03343    17.11051   110.54675     0.03110
     1.70000    19.23011   182.79276     0.03354    17.96339   112.27808     0.03112
     1.80000    19.80334   184.11614     0.03364    18.82512   113.78482     0.03114
     1.90000    20.35939   185.36774     0.03373    19.69179   115.09257     0.03116
     2.00000    20.96024   186.63229     0.03382    20.63333   116.37628     0.03119
     2.10000    21.47817   187.76702     0.03389    21.50065   117.33535     0.03122
     2.20000    22.03622   188.92458     0.03396    22.43742   118.27896     0.03125
     2.30000    22.57137   190.04058     0.03402    23.36801   119.07311     0.03129
     2.40000    23.08346   191.12343     0.03406    24.29048   119.73379     0.03132
     2.50000    23.57246   192.18063     0.03409    25.20330   120.27467     0.03136
     2.60000    24.08941   193.27337     0.03411    26.17536   120.78660     0.03140
     2.70000    24.57949   194.35061     0.03412    27.13368   121.18313     0.03144
     2.80000    25.04302   195.41936     0.03410    28.07747   121.47546     0.03147
     2.90000    25.52511   196.53738     0.03408    29.07273   121.72687     0.03151
     3.00000    25.97755   197.65906     0.03403    30.05020   121.87793     0.03155
     3.10000    26.40119   198.79134     0.03396    31.00990   121.93769     0.03158
     3.20000    26.83531   199.99270     0.03387    32.01433   121.94724     0.03161
     3.30000    27.23879   201.21962     0.03376    32.99895   121.86872     0.03164
     3.40000    27.64741   202.53386     0.03361    34.02378   121.73105     0.03166
     3.50000    28.05717   203.94838     0.03344    35.08537   121.52489     0.03168
     3.60000    28.43495   205.41987     0.03323    36.12445   121.23147     0.03170
     3.70000    28.81266   207.01977     0.03298    37.19735   120.86407     0.03170
     3.80000    29.18982   208.76804     0.03269    38.30163   120.41585     0.03171
     3.90000    29.56816   210.68778     0.03235    39.43532   119.88101     0.03170
     4.00000    29.97656   212.88046     0.03194    40.64714   119.24680     0.03169
     4.10000    30.39872   215.31156     0.03147    41.88320   118.50951     0.03166
     4.20000    30.85112   218.01377     0.03093    43.14335   117.66781     0.03163
     4.30000    31.40779   221.21067     0.03029    44.52038   116.68187     0.03158
     4.40000    32.09070   224.87387     0.02955    45.96303   115.55660     0.03151
     4.50000    33.03375   229.26900     0.02866    47.55722   114.23497     0.03144
     4.60000    34.42180   234.57036     0.02761    49.33774   112.67174     0.03134
     4.70000    36.61740   241.00660     0.02635    51.37667   110.79157     0.03122
     4.80000    40.45870   248.95719     0.02484    53.85518   108.42273     0.03106
     4.90000    48.03675   258.70573     0.02309    57.14736   105.21736     0.03083
     5.00000    71.30905   271.18368     0.02185    63.90145    99.00891     0.03020
     5.10000   103.00435   266.20096     0.02690    76.99565    93.79904     0.02690
     5.20000   103.00758   266.42758     0.02689    76.99242    93.57242     0.02689
     5.30000   103.01060   266.65435     0.02688    76.98940    93.34565     0.02688
     5.40000   103.01343   266.88128     0.02687    76.98657    93.11872     0.02687
     5.50000   103.01607   267.10836     0.02686    76.98393    92.89164     0.02686
     5.60000   103.01851   267.33558     0.02685    76.98149    92.66442     0.02685
     5.70000   103.02076   267.56293     0.02684    76.97924    92.43707     0.02684
     5.80000   103.02280   267.79040     0.02683    76.97720    92.20960     0.02683
     5.90000   103.02465   268.01800     0.02683    76.97535    91.98200     0.02683
     6.00000   103.02630   268.24571     0.02682    76.97370    91.75429     0.02682
     6.10000   103.02776   268.47352     0.02681    76.97224    91.52648     0.02681
     6.20000   103.02901   268.70143     0.02680    76.97099    91.29857     0.02680
     6.30000   103.03007   268.92943     0.02680    76.96993    91.07057     0.02680
     6.40000   103.03093   269.15751     0.02679    76.96907    90.84249     0.02679
     6.50000   103.03158   269.38567     0.02678    76.96842    90.61433     0.02678
     6.60000   103.03204   269.61390     0.02678    76.96796    90.38610     0.02678
     6.70000   103.03230   269.84219     0.02677    76.96770    90.15781     0.02677
     6.80000   103.03236   270.07054     0.02677    76.96764    89.92946     0.02677
     6.90000   103.03222   270.29893     0.02676    76.96778    89.70107     0.02676
     7.00000   103.03188   270.52737     0.02676    76.96812    89.47263     0.02676
     7.10000   103.03133   270.75583     0.02676    76.96867    89.24417     0.02676
     7.20000   103.03059   270.98433     0.02675    76.96941    89.01567     0.02675
     7.30000   103.02965   271.21284     0.02675    76.97035    88.78716     0.02675
     7.40000   103.02851   271.44136     0.02675    76.97149    88.55864     0.02675
     7.50000   103.02717   271.66989     0.02675    76.97283    88.33011     0.02675
     7.60000   103.02562   271.89841     0.02674    76.97438    88.10159     0.02674
     7.70000   103.02388   272.12692     0.02674    76.97612    87.87308     0.02674
     7.80000   103.02194   272.35542     0.02674    76.97806    87.64458     0.02674
     7.90000   103.01980   272.58389     0.02674    76.98020    87.41611     0.02674
     8.00000   103.01745   272.81233     0.02674    76.98255    87.18767     0.02674
     8.10000   103.01491   273.04073     0.02674    76.98509    86.95927     0.02674
     8.20000   103.01217   273.26908     0.02674    76.98783    86.73092     0.02674
     8.30000   103.00923   273.49738     0.02675    76.99077    86.50262     0.02675
     8.40000   103.00609   273.72561     0.02675    76.99391    86.27439     0.02675
     8.50000   103.00275   273.95378     0.02675    76.99725    86.04622     0.02675
     8.60000   102.99922   274.18188     0.02675    77.00078    85.81812     0.02675
     8.70000   102.99549   274.40989     0.02675    77.00451    85.59011     0.02675
     8.80000   102.99155   274.63781     0.02676    77.00845    85.36219     0.02676
     8.90000   102.98743   274.86564     0.02676    77.01257    85.13436     0.02676
     9.00000   102.98310   275.09336     0.02677    77.01690    84.90664     0.02677
     9.10000   102.97858   275.32097     0.02677    77.02142    84.67903     0.02677
     9.20000   102.97387   275.54846     0.02678    77.02613    84.45154     0.02678
     9.30000   102.96896   275.77583     0.02678    77.03104    84.22417     0.02678
     9.40000   102.96385   276.00306     0.02679    77.03615    83.99694     0.02679
     9.50000   102.95855   276.23016     0.02679    77.04145    83.76984     0.02679
     9.60000   102.95306   276.45711     0.02680    77.04694    83.54289     0.02680
     9.70000   102.94737   276.68390     0.02681    77.05263    83.31610     0.02681
     9.80000   102.94150   276.91054     0.02681    77.05850    83.08946     0.02681
     9.90000   102.93543   277.13701     0.02682    77.06457    82.86299     0.02682
    10.00000   102.92917   277.36331     0.02683    77.07083    82.63669     0.02683
    10.10000   102.92272   277.58942     0.02684    77.07728    82.41058     0.02684
    10.20000   102.91608   277.81535     0.02685    77.08392    82.18465     0.02685
    10.30000   102.90925   278.04108     0.02686    77.09075    81.95892     0.02686
    10.40000   102.90224   278.26662     0.02686    77.09776    81.73338     0.02686
    10.50000   102.89504   278.49194     0.02687    77.10496    81.50806     0.02687
    10.60000   102.88765   278.71705     0.02689    77.11235    81.28295     0.02689
    10.70000   102.88007   278.94194     0.02690    77.11993    81.05806     0.02690
    10.80000   102.87232   279.16661     0.02691    77.12768    80.83339     0.02691
    10.90000   102.86437   279.39104     0.02692    77.13563    80.60896     0.02692
    11.00000   102.85625   279.61523     0.02693    77.14375    80.38477     0.02693
    11.10000   102.84795   279.83917     0.02694    77.15205    80.16083     0.02694
    11.20000   102.83946   280.06286     0.02696    77.16054    79.93714     0.02696
    11.30000   102.83079   280.28629     0.02697    77.16921    79.71371     0.02697
    11.40000   102.82195   280.50945     0.02698    77.17805    79.49055     0.02698
    11.50000   102.81293   280.73234     0.02700    77.18707    79.26766     0.02700
    11.60000   102.80373   280.95495     0.02701    77.19627    79.04505     0.02701
    11.70000   102.79436   281.17728     0.02703    77.20564    78.82272     0.02703
    11.80000   102.78481   281.39932     0.02704    77.21519    78.60068     0.02704
    11.90000   102.77509   281.62106     0.02706    77.22491    78.37894     0.02706
    12.00000   102.76519   281.84250     0.02707    77.23481    78.15750     0.02707
    12.10000   102.75513   282.06363     0.02709    77.24487    77.93637     0.02709
    12.20000   102.74489   282.28445     0.02711    77.25511    77.71555     0.02711
    12.30000   102.73449   282.50494     0.02712    77.26551    77.49506     0.02712
    12.40000   102.72392   282.72511     0.02714    77.27608    77.27489     0.02714
    12.50000   102.71318   282.94495     0.02716    77.28682    77.05505     0.02716
    12.60000   102.70228   283.16445     0.02718    77.29772    76.83555     0.02718
    12.70000   102.69121   283.38360     0.02719    77.30879    76.61640     0.02719
    12.80000   102.67998   283.60241     0.02721    77.32002    76.39759     0.02721
    12.90000   102.66859   283.82086     0.02723    77.33141    76.17914     0.02723
    13.00000   102.65704   284.03895     0.02725    77.34296    75.96105     0.02725
    13.10000   102.64533   284.25668     0.02727    77.35467    75.74332     0.02727
    13.20000   102.63347   284.47404     0.02729    77.36653    75.52596     0.02729
    13.30000   102.62144   284.69102     0.02731    77.37856    75.30898     0.02731
    13.40000   102.60927   284.90762     0.02733    77.39073    75.09238     0.02733
    13.50000   102.59694   285.12384     0.02736    77.40306    74.87616     0.02736
    13.60000   102.58445   285.33966     0.02738    77.41555    74.66034     0.02738
    13.70000   102.57182   285.55509     0.02740    77.42818    74.44491     0.02740
    13.80000   102.55904   285.77011     0.02742    77.44096    74.22989     0.02742
    13.90000   102.54610   285.98473     0.02745    77.45390    74.01527     0.02745
    14.00000   102.53303   286.19894     0.02747    77.46697    73.80106     0.02747
    14.10000   102.51980   286.41273     0.02749    77.48020    73.58727     0.02749
    14.20000   102.50644   286.62611     0.02752    77.49356    73.37389     0.02752
    14.30000   102.49293   286.83905     0.02754    77.50707    73.16095     0.02754
    14.40000   102.47928   287.05157     0.02757    77.52072    72.94843     0.02757
    14.50000   102.46549   287.26366     0.02759    77.53451    72.73634     0.02759
    14.60000   102.45156   287.47530     0.02762    77.54844    72.52470     0.02762
    14.70000   102.43750   287.68650     0.02764    77.56250    72.31350     0.02764
    14.80000   102.42330   287.89726     0.02767    77.57670    72.10274     0.02767
    14.90000   102.40897   288.10756     0.02770    77.59103    71.89244     0.02770
    15.00000   102.39450   288.31741     0.02772    77.60550    71.68259     0.02772
    15.10000   102.37991   288.52680     0.02775    77.62009    71.47320     0.02775
    15.20000   102.36519   288.73572     0.02778    77.63481    71.26428     0.02778
    15.30000   102.35034   288.94418     0.02781    77.64966    71.05582     0.02781
    15.40000   102.33536   289.15217     0.02783    77.66464    70.84783     0.02783
    15.50000   102.32026   289.35967     0.02786    77.67974    70.64033     0.02786
    15.60000   102.30503   289.56670     0.02789    77.69497    70.43330     0.02789
    15.70000   102.28969   289.77325     0.02792    77.71031    70.22675     0.02792
    15.80000   102.27422   289.97931     0.02795    77.72578    70.02069     0.02795
    15.90000   102.25864   290.18488     0.02798    77.74136    69.81512     0.02798
    16.00000   102.24293   290.38996     0.02801    77.75707    69.61004     0.02801
    16.10000   102.22712   290.59454     0.02804    77.77288    69.40546     0.02804
    16.20000   102.21119   290.79862     0.02807    77.78881    69.20138     0.02807
    16.30000   102.19514   291.00219     0.02810    77.80486    68.99781     0.02810
    16.40000   102.17899   291.20526     0.02814    77.82101    68.79474     0.02814
    16.50000   102.16273   291.40782     0.02817    77.83727    68.59218     0.02817
    16.60000   102.14636   291.60986     0.02820    77.85364    68.39014     0.02820
    16.70000   102.12988   291.81139     0.02823    77.87012    68.18861     0.02823
    16.80000   102.11330   292.01240     0.02827    77.88670    67.98760     0.02827
    16.90000   102.09661   292.21288     0.02830    77.90339    67.78712     0.02830
    17.00000   102.07983   292.41284     0.02833    77.92017    67.58716     0.02833
    17.10000   102.06294   292.61228     0.02837    77.93706    67.38772     0.02837
    17.20000   102.04595   292.81118     0.02840    77.95405    67.18882     0.02840
    17.30000   102.02887   293.00955     0.02844    77.97113    66.99045     0.02844
    17.40000   102.01169   293.20738     0.02847    77.98831    66.79262     0.02847
    17.50000   101.99442   293.40468     0.02851    78.00558    66.59532     0.02851
    17.60000   101.97706   293.60143     0.02854    78.02294    66.39857     0.02854
    17.70000   101.95960   293.79765     0.02858    78.04040    66.20235     0.02858
    17.80000   101.94206   293.99331     0.02861    78.05794    66.00669     0.02861
    17.90000   101.92443   294.18843     0.02865    78.07557    65.81157     0.02865
    18.00000   101.90671   294.38300     0.02869    78.09329    65.61700     0.02869
    18.10000   101.88891   294.57702     0.02872    78.11109    65.42298     0.02872
    18.20000   101.87102   294.77048     0.02876    78.12898    65.22952     0.02876
    18.30000   101.85305   294.96339     0.02880    78.14695    65.03661     0.02880
    18.40000   101.83500   295.15573     0.02884    78.16500    64.84427     0.02884
    18.50000   101.81687   295.34752     0.02888    78.18313    64.65248     0.02888
    18.60000   101.79867   295.53875     0.02892    78.20133    64.46125     0.02892
    18.70000   101.78039   295.72941     0.02895    78.21961    64.27059     0.02895
    18.80000   101.76203   295.91951     0.02899    78.23797    64.08049     0.02899
    18.90000   101.74360   296.10904     0.02903    78.25640    63.89096     0.02903
    19.00000   101.72510   296.29801     0.02907    78.27490    63.70199     0.02907
    19.10000   101.70653   296.48640     0.02911    78.29347    63.51360     0.02911
    19.20000   101.68789   296.67422     0.02915    78.31211    63.32578     0.02915
    19.30000   101.66918   296.86147     0.02920    78.33082    63.13853     0.02920
    19.40000   101.65041   297.04815     0.02924    78.34959    62.95185     0.02924
    19.50000   101.63157   297.23425     0.02928    78.36843    62.76575     0.02928
    19.60000   101.61267   297.41977     0.02932    78.38733    62.58023     0.02932
    19.70000   101.59371   297.60472     0.02936    78.40629    62.39528     0.02936
    19.80000   101.57469   297.78908     0.02940    78.42531    62.21092     0.02940
    19.90000   101.55561   297.97287     0.02945    78.44439    62.02713     0.02945
    20.00000   101.53647   298.15608     0.02949    78.46353    61.84392     0.02949
    20.10000   101.51728   298.33870     0.02953    78.48272    61.66130     0.02953
    20.20000   101.49803   298.52074     0.02958    78.50197    61.47926     0.02958
    20.30000   101.47873   298.70220     0.02962    78.52127    61.29780     0.02962
    20.40000   101.45937   298.88307     0.02966    78.54063    61.11693     0.02966
    20.50000   101.43997   299.06336     0.02971    78.56003    60.93664     0.02971
    20.60000   101.42051   299.24306     0.02975    78.57949    60.75694     0.02975
    20.70000   101.40101   299.42218     0.02980    78.59899    60.57782     0.02980
    20.80000   101.38146   299.60070     0.02984    78.61854    60.39930     0.02984
    20.90000   101.36186   299.77864     0.02989    78.63814    60.22136     0.02989
    21.00000   101.34223   299.95600     0.02993    78.65777    60.04400     0.02993
    21.10000   101.32254   300.13276     0.02998    78.67746    59.86724     0.02998
    21.20000   101.30282   300.30893     0.03003    78.69718    59.69107     0.03003
    21.30000   101.28306   300.48452     0.03007    78.71694    59.51548     0.03007
    21.40000   101.26325   300.65951     0.03012    78.73675    59.34049     0.03012
    21.50000   101.24341   300.83392     0.03017    78.75659    59.16608     0.03017
    21.60000   101.22354   301.00773     0.03021    78.77646    58.99227     0.03021
    21.70000   101.20362   301.18096     0.03026    78.79638    58.81904     0.03026
    21.80000   101.18368   301.35359     0.03031    78.81632    58.64641     0.03031
    21.90000   101.16370   301.52563     0.03036    78.83630    58.47437     0.03036
    22.00000   101.14369   301.69709     0.03041    78.85631    58.30291     0.03041
    22.10000   101.12364   301.86795     0.03046    78.87636    58.13205     0.03046
    22.20000   101.10357   302.03822     0.03050    78.89643    57.96178     0.03050
    22.30000   101.08347   302.20790     0.03055    78.91653    57.79210     0.03055
    22.40000   101.06335   302.37699     0.03060    78.93665    57.62301     0.03060
    22.50000   101.04319   302.54549     0.03065    78.95681    57.45451     0.03065
    22.60000   101.02302   302.71340     0.03070    78.97698    57.28660     0.03070
    22.70000   101.00281   302.88072     0.03075    78.99719    57.11928     0.03075
    22.80000   100.98259   303.04745     0.03080    79.01741    56.95255     0.03080
    22.90000   100.96234   303.21359     0.03085    79.03766    56.78641     0.03085
    23.00000   100.94208   303.37915     0.03090    79.05792    56.62085     0.03090
    23.10000   100.92179   303.54411     0.03096    79.07821    56.45589     0.03096
    23.20000   100.90149   303.70849     0.03101    79.09851    56.29151     0.03101
    23.30000   100.88117   303.87227     0.03106    79.11883    56.12773     0.03106
