 # applied field (T), theta (degree), phi (degree), abs [muB/unitcell], abs [T]
       0.00000000       0.00000000       0.00000000      34.70380266       1.16014121
       0.10000000       4.18353664      45.00000000      34.70350398       1.16013123
       0.20000000      90.00000000      45.00000000      34.71548116       1.16053162
       0.30000000      90.00000000      45.00000000      34.71571661       1.16053949
       0.40000000      90.00000000      45.00000000      34.71595203       1.16054736
       0.50000000      90.00000000      45.00000000      34.71618743       1.16055523
       0.60000000      90.00000000      45.00000000      34.71642281       1.16056310
       0.70000000      90.00000000      45.00000000      34.71665816       1.16057097
       0.80000000      90.00000000      45.00000000      34.71689350       1.16057884
       0.90000000      90.00000000      45.00000000      34.71712880       1.16058670
       1.00000000      90.00000000      45.00000000      34.71736409       1.16059457
       1.10000000      90.00000000      45.00000000      34.71759936       1.16060243
       1.20000000      90.00000000      45.00000000      34.71783460       1.16061030
       1.30000000      90.00000000      45.00000000      34.71806981       1.16061816
       1.40000000      90.00000000      45.00000000      34.71830501       1.16062602
       1.50000000      90.00000000      45.00000000      34.71854018       1.16063388
       1.60000000      90.00000000      45.00000000      34.71877533       1.16064175
       1.70000000      90.00000000      45.00000000      34.71901046       1.16064961
       1.80000000      90.00000000      45.00000000      34.71924557       1.16065747
       1.90000000      90.00000000      45.00000000      34.71948065       1.16066532
       2.00000000      90.00000000      45.00000000      34.71971571       1.16067318
       2.10000000      90.00000000      45.00000000      34.71995075       1.16068104
       2.20000000      90.00000000      45.00000000      34.72018576       1.16068890
       2.30000000      90.00000000      45.00000000      34.72042075       1.16069675
       2.40000000      90.00000000      45.00000000      34.72065572       1.16070461
       2.50000000      90.00000000      45.00000000      34.72089067       1.16071246
       2.60000000      90.00000000      45.00000000      34.72112559       1.16072031
       2.70000000      90.00000000      45.00000000      34.72136050       1.16072817
       2.80000000      90.00000000      45.00000000      34.72159537       1.16073602
       2.90000000      90.00000000      45.00000000      34.72183023       1.16074387
       3.00000000      90.00000000      45.00000000      34.72206506       1.16075172
       3.10000000      90.00000000      45.00000000      34.72229988       1.16075957
       3.20000000      90.00000000      45.00000000      34.72253466       1.16076742
       3.30000000      90.00000000      45.00000000      34.72276943       1.16077527
       3.40000000      90.00000000      45.00000000      34.72300417       1.16078311
       3.50000000      90.00000000      45.00000000      34.72323890       1.16079096
       3.60000000      90.00000000      45.00000000      34.72347359       1.16079881
       3.70000000      90.00000000      45.00000000      34.72370827       1.16080665
       3.80000000      90.00000000      45.00000000      34.72394293       1.16081450
       3.90000000      90.00000000      45.00000000      34.72417756       1.16082234
       4.00000000      90.00000000      45.00000000      34.72441217       1.16083018
       4.10000000      90.00000000      45.00000000      34.72464675       1.16083803
       4.20000000      90.00000000      45.00000000      34.72488132       1.16084587
       4.30000000      90.00000000      45.00000000      34.72511586       1.16085371
       4.40000000      90.00000000      45.00000000      34.72535038       1.16086155
       4.50000000      90.00000000      45.00000000      34.72558487       1.16086939
       4.60000000      90.00000000      45.00000000      34.72581935       1.16087723
       4.70000000      90.00000000      45.00000000      34.72605380       1.16088506
       4.80000000      90.00000000      45.00000000      34.72628823       1.16089290
       4.90000000      90.00000000      45.00000000      34.72652264       1.16090074
       5.00000000      90.00000000      45.00000000      34.72675702       1.16090857
       5.10000000      90.00000000      45.00000000      34.72699138       1.16091641
       5.20000000      90.00000000      45.00000000      34.72722572       1.16092424
       5.30000000      90.00000000      45.00000000      34.72746004       1.16093207
       5.40000000      90.00000000      45.00000000      34.72769433       1.16093991
       5.50000000      90.00000000      45.00000000      34.72792861       1.16094774
       5.60000000      90.00000000      45.00000000      34.72816286       1.16095557
       5.70000000      90.00000000      45.00000000      34.72839709       1.16096340
       5.80000000      90.00000000      45.00000000      34.72863129       1.16097123
       5.90000000      90.00000000      45.00000000      34.72886548       1.16097906
       6.00000000      90.00000000      45.00000000      34.72909964       1.16098688
       6.10000000      90.00000000      45.00000000      34.72933378       1.16099471
       6.20000000      90.00000000      45.00000000      34.72956789       1.16100254
       6.30000000      90.00000000      45.00000000      34.72980199       1.16101036
       6.40000000      90.00000000      45.00000000      34.73003606       1.16101819
       6.50000000      90.00000000      45.00000000      34.73027011       1.16102601
       6.60000000      90.00000000      45.00000000      34.73050414       1.16103384
       6.70000000      90.00000000      45.00000000      34.73073814       1.16104166
       6.80000000      90.00000000      45.00000000      34.73097213       1.16104948
       6.90000000      90.00000000      45.00000000      34.73120609       1.16105730
       7.00000000      90.00000000      45.00000000      34.73144003       1.16106512
       7.10000000      90.00000000      45.00000000      34.73167394       1.16107294
       7.20000000      90.00000000      45.00000000      34.73190784       1.16108076
       7.30000000      90.00000000      45.00000000      34.73214171       1.16108858
       7.40000000      90.00000000      45.00000000      34.73237556       1.16109640
       7.50000000      90.00000000      45.00000000      34.73260939       1.16110422
       7.60000000      90.00000000      45.00000000      34.73284319       1.16111203
       7.70000000      90.00000000      45.00000000      34.73307698       1.16111985
       7.80000000      90.00000000      45.00000000      34.73331074       1.16112766
       7.90000000      90.00000000      45.00000000      34.73354448       1.16113548
       8.00000000      90.00000000      45.00000000      34.73377819       1.16114329
       8.10000000      90.00000000      45.00000000      34.73401189       1.16115110
       8.20000000      90.00000000      45.00000000      34.73424556       1.16115891
       8.30000000      90.00000000      45.00000000      34.73447921       1.16116672
       8.40000000      90.00000000      45.00000000      34.73471284       1.16117453
       8.50000000      90.00000000      45.00000000      34.73494645       1.16118234
       8.60000000      90.00000000      45.00000000      34.73518003       1.16119015
       8.70000000      90.00000000      45.00000000      34.73541359       1.16119796
       8.80000000      90.00000000      45.00000000      34.73564714       1.16120577
       8.90000000      90.00000000      45.00000000      34.73588065       1.16121357
       9.00000000      90.00000000      45.00000000      34.73611415       1.16122138
       9.10000000      90.00000000      45.00000000      34.73634762       1.16122918
       9.20000000      90.00000000      45.00000000      34.73658108       1.16123699
       9.30000000      90.00000000      45.00000000      34.73681451       1.16124479
       9.40000000      90.00000000      45.00000000      34.73704791       1.16125259
       9.50000000      90.00000000      45.00000000      34.73728130       1.16126040
       9.60000000      90.00000000      45.00000000      34.73751467       1.16126820
       9.70000000      90.00000000      45.00000000      34.73774801       1.16127600
       9.80000000      90.00000000      45.00000000      34.73798133       1.16128380
       9.90000000      90.00000000      45.00000000      34.73821463       1.16129160
      10.00000000      90.00000000      45.00000000      34.73844790       1.16129940
      10.10000000      90.00000000      45.00000000      34.73868116       1.16130719
      10.20000000      90.00000000      45.00000000      34.73891439       1.16131499
      10.30000000      90.00000000      45.00000000      34.73914760       1.16132279
      10.40000000      90.00000000      45.00000000      34.73938079       1.16133058
      10.50000000      90.00000000      45.00000000      34.73961396       1.16133838
      10.60000000      90.00000000      45.00000000      34.73984710       1.16134617
      10.70000000      90.00000000      45.00000000      34.74008022       1.16135396
      10.80000000      90.00000000      45.00000000      34.74031332       1.16136176
      10.90000000      90.00000000      45.00000000      34.74054640       1.16136955
      11.00000000      90.00000000      45.00000000      34.74077946       1.16137734
      11.10000000      90.00000000      45.00000000      34.74101250       1.16138513
      11.20000000      90.00000000      45.00000000      34.74124551       1.16139292
      11.30000000      90.00000000      45.00000000      34.74147850       1.16140071
      11.40000000      90.00000000      45.00000000      34.74171147       1.16140850
      11.50000000      90.00000000      45.00000000      34.74194442       1.16141628
      11.60000000      90.00000000      45.00000000      34.74217735       1.16142407
      11.70000000      90.00000000      45.00000000      34.74241025       1.16143186
      11.80000000      90.00000000      45.00000000      34.74264313       1.16143964
      11.90000000      90.00000000      45.00000000      34.74287599       1.16144743
      12.00000000      90.00000000      45.00000000      34.74310883       1.16145521
      12.10000000      90.00000000      45.00000000      34.74334165       1.16146299
      12.20000000      90.00000000      45.00000000      34.74357445       1.16147077
      12.30000000      90.00000000      45.00000000      34.74380722       1.16147856
      12.40000000      90.00000000      45.00000000      34.74403997       1.16148634
      12.50000000      90.00000000      45.00000000      34.74427270       1.16149412
      12.60000000      90.00000000      45.00000000      34.74450541       1.16150190
      12.70000000      90.00000000      45.00000000      34.74473810       1.16150968
      12.80000000      90.00000000      45.00000000      34.74497076       1.16151745
      12.90000000      90.00000000      45.00000000      34.74520341       1.16152523
      13.00000000      90.00000000      45.00000000      34.74543603       1.16153301
      13.10000000      90.00000000      45.00000000      34.74566863       1.16154078
      13.20000000      90.00000000      45.00000000      34.74590121       1.16154856
      13.30000000      90.00000000      45.00000000      34.74613376       1.16155633
      13.40000000      90.00000000      45.00000000      34.74636630       1.16156411
      13.50000000      90.00000000      45.00000000      34.74659881       1.16157188
      13.60000000      90.00000000      45.00000000      34.74683130       1.16157965
      13.70000000      90.00000000      45.00000000      34.74706377       1.16158742
      13.80000000      90.00000000      45.00000000      34.74729622       1.16159519
      13.90000000      90.00000000      45.00000000      34.74752865       1.16160296
      14.00000000      90.00000000      45.00000000      34.74776105       1.16161073
      14.10000000      90.00000000      45.00000000      34.74799344       1.16161850
      14.20000000      90.00000000      45.00000000      34.74822580       1.16162627
      14.30000000      90.00000000      45.00000000      34.74845814       1.16163404
      14.40000000      90.00000000      45.00000000      34.74869046       1.16164180
      14.50000000      90.00000000      45.00000000      34.74892275       1.16164957
      14.60000000      90.00000000      45.00000000      34.74915503       1.16165733
      14.70000000      90.00000000      45.00000000      34.74938728       1.16166510
      14.80000000      90.00000000      45.00000000      34.74961952       1.16167286
      14.90000000      90.00000000      45.00000000      34.74985173       1.16168062
      15.00000000      90.00000000      45.00000000      34.75008392       1.16168839
      15.10000000      90.00000000      45.00000000      34.75031609       1.16169615
      15.20000000      90.00000000      45.00000000      34.75054823       1.16170391
      15.30000000      90.00000000      45.00000000      34.75078036       1.16171167
      15.40000000      90.00000000      45.00000000      34.75101246       1.16171943
      15.50000000      90.00000000      45.00000000      34.75124454       1.16172718
      15.60000000      90.00000000      45.00000000      34.75147660       1.16173494
      15.70000000      90.00000000      45.00000000      34.75170864       1.16174270
      15.80000000      90.00000000      45.00000000      34.75194066       1.16175046
      15.90000000      90.00000000      45.00000000      34.75217266       1.16175821
      16.00000000      90.00000000      45.00000000      34.75240463       1.16176597
      16.10000000      90.00000000      45.00000000      34.75263658       1.16177372
      16.20000000      90.00000000      45.00000000      34.75286852       1.16178147
      16.30000000      90.00000000      45.00000000      34.75310043       1.16178923
      16.40000000      90.00000000      45.00000000      34.75333231       1.16179698
      16.50000000      90.00000000      45.00000000      34.75356418       1.16180473
      16.60000000      90.00000000      45.00000000      34.75379603       1.16181248
      16.70000000      90.00000000      45.00000000      34.75402785       1.16182023
      16.80000000      90.00000000      45.00000000      34.75425966       1.16182798
      16.90000000      90.00000000      45.00000000      34.75449144       1.16183573
      17.00000000      90.00000000      45.00000000      34.75472320       1.16184348
      17.10000000      90.00000000      45.00000000      34.75495494       1.16185122
      17.20000000      90.00000000      45.00000000      34.75518666       1.16185897
      17.30000000      90.00000000      45.00000000      34.75541835       1.16186671
      17.40000000      90.00000000      45.00000000      34.75565003       1.16187446
      17.50000000      90.00000000      45.00000000      34.75588168       1.16188220
      17.60000000      90.00000000      45.00000000      34.75611332       1.16188995
      17.70000000      90.00000000      45.00000000      34.75634493       1.16189769
      17.80000000      90.00000000      45.00000000      34.75657652       1.16190543
      17.90000000      90.00000000      45.00000000      34.75680809       1.16191317
      18.00000000      90.00000000      45.00000000      34.75703963       1.16192091
      18.10000000      90.00000000      45.00000000      34.75727116       1.16192865
      18.20000000      90.00000000      45.00000000      34.75750267       1.16193639
      18.30000000      90.00000000      45.00000000      34.75773415       1.16194413
      18.40000000      90.00000000      45.00000000      34.75796561       1.16195187
      18.50000000      90.00000000      45.00000000      34.75819705       1.16195961
      18.60000000      90.00000000      45.00000000      34.75842847       1.16196734
      18.70000000      90.00000000      45.00000000      34.75865987       1.16197508
      18.80000000      90.00000000      45.00000000      34.75889125       1.16198281
      18.90000000      90.00000000      45.00000000      34.75912261       1.16199055
      19.00000000      90.00000000      45.00000000      34.75935394       1.16199828
      19.10000000      90.00000000      45.00000000      34.75958526       1.16200601
      19.20000000      90.00000000      45.00000000      34.75981655       1.16201375
      19.30000000      90.00000000      45.00000000      34.76004782       1.16202148
      19.40000000      90.00000000      45.00000000      34.76027907       1.16202921
      19.50000000      90.00000000      45.00000000      34.76051030       1.16203694
      19.60000000      90.00000000      45.00000000      34.76074151       1.16204467
      19.70000000      90.00000000      45.00000000      34.76097270       1.16205240
      19.80000000      90.00000000      45.00000000      34.76120386       1.16206012
      19.90000000      90.00000000      45.00000000      34.76143501       1.16206785
      20.00000000      90.00000000      45.00000000      34.76166613       1.16207558
      20.10000000      90.00000000      45.00000000      34.76189723       1.16208330
      20.20000000      90.00000000      45.00000000      34.76212832       1.16209103
      20.30000000      90.00000000      45.00000000      34.76235938       1.16209875
      20.40000000      90.00000000      45.00000000      34.76259042       1.16210648
      20.50000000      90.00000000      45.00000000      34.76282143       1.16211420
      20.60000000      90.00000000      45.00000000      34.76305243       1.16212192
      20.70000000      90.00000000      45.00000000      34.76328341       1.16212964
      20.80000000      90.00000000      45.00000000      34.76351436       1.16213736
      20.90000000      90.00000000      45.00000000      34.76374530       1.16214508
      21.00000000      90.00000000      45.00000000      34.76397621       1.16215280
      21.10000000      90.00000000      45.00000000      34.76420710       1.16216052
      21.20000000      90.00000000      45.00000000      34.76443798       1.16216824
      21.30000000      90.00000000      45.00000000      34.76466883       1.16217596
      21.40000000      90.00000000      45.00000000      34.76489966       1.16218367
      21.50000000      90.00000000      45.00000000      34.76513046       1.16219139
      21.60000000      90.00000000      45.00000000      34.76536125       1.16219910
      21.70000000      90.00000000      45.00000000      34.76559202       1.16220682
      21.80000000      90.00000000      45.00000000      34.76582276       1.16221453
      21.90000000      90.00000000      45.00000000      34.76605349       1.16222224
      22.00000000      90.00000000      45.00000000      34.76628419       1.16222996
      22.10000000      90.00000000      45.00000000      34.76651487       1.16223767
      22.20000000      90.00000000      45.00000000      34.76674554       1.16224538
      22.30000000      90.00000000      45.00000000      34.76697618       1.16225309
      22.40000000      90.00000000      45.00000000      34.76720680       1.16226080
      22.50000000      90.00000000      45.00000000      34.76743740       1.16226851
      22.60000000      90.00000000      45.00000000      34.76766798       1.16227622
      22.70000000      90.00000000      45.00000000      34.76789853       1.16228392
      22.80000000      90.00000000      45.00000000      34.76812907       1.16229163
      22.90000000      90.00000000      45.00000000      34.76835958       1.16229934
      23.00000000      90.00000000      45.00000000      34.76859008       1.16230704
