 # applied field (T), theta (degree), phi (degree), abs [muB/unitcell], abs [T]
       0.00000000       0.00000000       0.00000000      45.01447524       1.50482494
       0.10000000       0.22640821      45.00000000      45.01447473       1.50482493
       0.20000000       0.45281658      45.00000000      45.01447318       1.50482487
       0.30000000       0.67922528      45.00000000      45.01447061       1.50482479
       0.40000000       0.90563446      45.00000000      45.01446702       1.50482467
       0.50000000       1.13204428      45.00000000      45.01446240       1.50482451
       0.60000000       1.35845492      45.00000000      45.01445676       1.50482433
       0.70000000       1.58486652      45.00000000      45.01445010       1.50482410
       0.80000000       1.81127926      45.00000000      45.01444243       1.50482385
       0.90000000       2.03769328      45.00000000      45.01443375       1.50482356
       1.00000000       2.26410876      45.00000000      45.01442407       1.50482323
       1.10000000       2.49052586      45.00000000      45.01441339       1.50482288
       1.20000000       2.71694473      45.00000000      45.01440172       1.50482249
       1.30000000       2.94336554      45.00000000      45.01438906       1.50482206
       1.40000000       3.16978844      45.00000000      45.01437543       1.50482161
       1.50000000       3.39621361      45.00000000      45.01436084       1.50482112
       1.60000000       3.62264120      45.00000000      45.01434528       1.50482060
       1.70000000       3.84907136      45.00000000      45.01432878       1.50482005
       1.80000000       4.07550428      45.00000000      45.01431133       1.50481946
       1.90000000       4.30194009      45.00000000      45.01429296       1.50481885
       2.00000000       4.47194012      45.00000000      45.01428210       1.50481849
       2.10000000       4.69838139      45.00000000      45.01426231       1.50481783
       2.20000000       4.92482599      45.00000000      45.01424163       1.50481713
       2.30000000       5.15127410      45.00000000      45.01422007       1.50481641
       2.40000000       5.37772587      45.00000000      45.01419764       1.50481566
       2.50000000       5.60418147      45.00000000      45.01417435       1.50481488
       2.60000000       5.83064105      45.00000000      45.01415023       1.50481408
       2.70000000       6.05710478      45.00000000      45.01412528       1.50481324
       2.80000000       6.28357280      45.00000000      45.01409953       1.50481238
       2.90000000       6.51004530      45.00000000      45.01407299       1.50481150
       3.00000000       6.73652241      45.00000000      45.01404567       1.50481058
       3.10000000       6.96300431      45.00000000      45.01401760       1.50480964
       3.20000000       7.18949115      45.00000000      45.01398879       1.50480868
       3.30000000       7.41598308      45.00000000      45.01395926       1.50480769
       3.40000000       7.64248028      45.00000000      45.01392904       1.50480668
       3.50000000       7.86898289      45.00000000      45.01389814       1.50480565
       3.60000000       8.09549108      45.00000000      45.01386658       1.50480460
       3.70000000       8.32200500      45.00000000      45.01383438       1.50480352
       3.80000000       8.54852481      45.00000000      45.01380157       1.50480242
       3.90000000       8.77505067      45.00000000      45.01376816       1.50480131
       4.00000000       9.00158274      45.00000000      45.01373418       1.50480017
       4.10000000       9.22812117      45.00000000      45.01369966       1.50479902
       4.20000000       9.45466612      45.00000000      45.01366462       1.50479784
       4.30000000       9.68121775      45.00000000      45.01362907       1.50479666
       4.40000000       9.90777621      45.00000000      45.01359306       1.50479545
       4.50000000      10.13434166      45.00000000      45.01355659       1.50479423
       4.60000000      10.36091425      45.00000000      45.01351970       1.50479300
       4.70000000      10.58749415      45.00000000      45.01348242       1.50479175
       4.80000000      10.81408151      45.00000000      45.01344476       1.50479049
       4.90000000      11.04067647      45.00000000      45.01340676       1.50478922
       5.00000000      11.26727920      45.00000000      45.01336845       1.50478794
       5.10000000      11.49388986      45.00000000      45.01332985       1.50478665
       5.20000000      11.72050859      45.00000000      45.01329099       1.50478535
       5.30000000      11.94713555      45.00000000      45.01325191       1.50478405
       5.40000000      12.17377089      45.00000000      45.01321262       1.50478273
       5.50000000      12.40041477      45.00000000      45.01317317       1.50478142
       5.60000000      12.62706734      45.00000000      45.01313357       1.50478009
       5.70000000      12.85372875      45.00000000      45.01309387       1.50477876
       5.80000000      13.08039915      45.00000000      45.01305409       1.50477743
       5.90000000      13.30707870      45.00000000      45.01301427       1.50477610
       6.00000000      13.53376754      45.00000000      45.01297443       1.50477477
       6.10000000      13.76046584      45.00000000      45.01293461       1.50477344
       6.20000000      13.98717373      45.00000000      45.01289484       1.50477211
       6.30000000      14.21389138      45.00000000      45.01285516       1.50477078
       6.40000000      14.44061892      45.00000000      45.01281560       1.50476946
       6.50000000      14.72387332      45.00000000      45.01275515       1.50476744
       6.60000000      14.95062375      45.00000000      45.01271582       1.50476613
       6.70000000      15.17738457      45.00000000      45.01267671       1.50476482
       6.80000000      15.40415592      45.00000000      45.01263788       1.50476352
       6.90000000      15.63093795      45.00000000      45.01259934       1.50476223
       7.00000000      15.85773081      45.00000000      45.01256114       1.50476096
       7.10000000      16.08453464      45.00000000      45.01252332       1.50475969
       7.20000000      16.31134959      45.00000000      45.01248590       1.50475844
       7.30000000      16.53817581      45.00000000      45.01244893       1.50475720
       7.40000000      16.76501344      45.00000000      45.01241243       1.50475598
       7.50000000      16.99186263      45.00000000      45.01237646       1.50475478
       7.60000000      17.21872352      45.00000000      45.01234105       1.50475360
       7.70000000      17.44559625      45.00000000      45.01230622       1.50475243
       7.80000000      17.67248097      45.00000000      45.01227203       1.50475129
       7.90000000      17.89937782      45.00000000      45.01223851       1.50475017
       8.00000000      18.12628694      45.00000000      45.01220570       1.50474907
       8.10000000      18.35320848      45.00000000      45.01217363       1.50474800
       8.20000000      18.58014257      45.00000000      45.01214235       1.50474696
       8.30000000      18.86366036      45.00000000      45.01209037       1.50474522
       8.40000000      19.09062330      45.00000000      45.01206085       1.50474423
       8.50000000      19.31759925      45.00000000      45.01203224       1.50474327
       8.60000000      19.54458836      45.00000000      45.01200458       1.50474235
       8.70000000      19.77159074      45.00000000      45.01197791       1.50474146
       8.80000000      19.99860655      45.00000000      45.01195227       1.50474060
       8.90000000      20.22563592      45.00000000      45.01192771       1.50473978
       9.00000000      20.45267899      45.00000000      45.01190425       1.50473900
       9.10000000      20.67973588      45.00000000      45.01188194       1.50473825
       9.20000000      20.90680674      45.00000000      45.01186082       1.50473754
       9.30000000      21.13389170      45.00000000      45.01184093       1.50473688
       9.40000000      21.41760137      45.00000000      45.01180221       1.50473558
       9.50000000      21.64471864      45.00000000      45.01178510       1.50473501
       9.60000000      21.87185045      45.00000000      45.01176935       1.50473449
       9.70000000      22.09899691      45.00000000      45.01175500       1.50473401
       9.80000000      22.32615816      45.00000000      45.01174209       1.50473357
       9.90000000      22.55333433      45.00000000      45.01173066       1.50473319
      10.00000000      22.78052555      45.00000000      45.01172076       1.50473286
      10.10000000      23.00773195      45.00000000      45.01171242       1.50473258
      10.20000000      23.29159587      45.00000000      45.01168748       1.50473175
      10.30000000      23.51883699      45.00000000      45.01168267       1.50473159
      10.40000000      23.74609370      45.00000000      45.01167956       1.50473148
      10.50000000      23.97336611      45.00000000      45.01167818       1.50473144
      10.60000000      24.20065436      45.00000000      45.01167857       1.50473145
      10.70000000      24.42795857      45.00000000      45.01168078       1.50473152
      10.80000000      24.65527885      45.00000000      45.01168484       1.50473166
      10.90000000      24.93928731      45.00000000      45.01167488       1.50473133
      11.00000000      25.16664433      45.00000000      45.01168313       1.50473160
      11.10000000      25.39401783      45.00000000      45.01169337       1.50473195
      11.20000000      25.62140790      45.00000000      45.01170563       1.50473236
      11.30000000      25.84881468      45.00000000      45.01171995       1.50473283
      11.40000000      26.07623828      45.00000000      45.01173638       1.50473338
      11.50000000      26.36037779      45.00000000      45.01174145       1.50473355
      11.60000000      26.58783979      45.00000000      45.01176262       1.50473426
      11.70000000      26.81531897      45.00000000      45.01178602       1.50473504
      11.80000000      27.04281546      45.00000000      45.01181168       1.50473590
      11.90000000      27.27032936      45.00000000      45.01183965       1.50473684
      12.00000000      27.55458335      45.00000000      45.01185883       1.50473748
      12.10000000      27.78213698      45.00000000      45.01189200       1.50473859
      12.20000000      28.00970838      45.00000000      45.01192759       1.50473978
      12.30000000      28.23729765      45.00000000      45.01196565       1.50474105
      12.40000000      28.52164716      45.00000000      45.01199720       1.50474210
      12.50000000      28.74927719      45.00000000      45.01204082       1.50474356
      12.60000000      28.97692543      45.00000000      45.01208702       1.50474511
      12.70000000      29.20459198      45.00000000      45.01213584       1.50474674
      12.80000000      29.43227695      45.00000000      45.01218731       1.50474846
      12.90000000      29.71674772      45.00000000      45.01223533       1.50475006
      13.00000000      29.94447466      45.00000000      45.01229279       1.50475198
      13.10000000      30.17222034      45.00000000      45.01235301       1.50475400
      13.20000000      30.39998485      45.00000000      45.01241603       1.50475610
      13.30000000      30.68455637      45.00000000      45.01247826       1.50475818
      13.40000000      30.91236378      45.00000000      45.01254760       1.50476050
      13.50000000      31.14019034      45.00000000      45.01261985       1.50476292
      13.60000000      31.42484042      45.00000000      45.01269345       1.50476538
      13.70000000      31.65271057      45.00000000      45.01277225       1.50476801
      13.80000000      31.88060014      45.00000000      45.01285407       1.50477075
      13.90000000      32.10850924      45.00000000      45.01293892       1.50477358
      14.00000000      32.39326384      45.00000000      45.01302808       1.50477657
      14.10000000      32.62121737      45.00000000      45.01311980       1.50477963
      14.20000000      32.84919070      45.00000000      45.01321465       1.50478280
      14.30000000      33.13402663      45.00000000      45.01331616       1.50478620
      14.40000000      33.36204501      45.00000000      45.01341809       1.50478960
      14.50000000      33.59008347      45.00000000      45.01352325       1.50479312
      14.60000000      33.87500183      45.00000000      45.01363751       1.50479694
      14.70000000      34.10308592      45.00000000      45.01374995       1.50480070
      14.80000000      34.33119033      45.00000000      45.01386571       1.50480457
      14.90000000      34.61619218      45.00000000      45.01399309       1.50480883
      15.00000000      34.84434280      45.00000000      45.01411633       1.50481294
      15.10000000      35.12940314      45.00000000      45.01425298       1.50481751
      15.20000000      35.35760033      45.00000000      45.01438382       1.50482189
      15.30000000      35.58581824      45.00000000      45.01451812       1.50482638
      15.40000000      35.87096375      45.00000000      45.01466847       1.50483140
      15.50000000      36.09922875      45.00000000      45.01481055       1.50483615
      15.60000000      36.32751469      45.00000000      45.01495616       1.50484102
      15.70000000      36.61274629      45.00000000      45.01512052       1.50484651
      15.80000000      36.84107980      45.00000000      45.01527407       1.50485165
      15.90000000      37.12637161      45.00000000      45.01544829       1.50485747
      16.00000000      37.35475302      45.00000000      45.01560988       1.50486287
      16.10000000      37.64010544      45.00000000      45.01579408       1.50486903
      16.20000000      37.86853504      45.00000000      45.01596382       1.50487471
      16.30000000      38.09698606      45.00000000      45.01613723       1.50488050
      16.40000000      38.38242656      45.00000000      45.01633611       1.50488715
      16.50000000      38.61092619      45.00000000      45.01651779       1.50489323
      16.60000000      38.89642823      45.00000000      45.01672694       1.50490022
      16.70000000      39.12497675      45.00000000      45.01691698       1.50490657
      16.80000000      39.41054065      45.00000000      45.01713650       1.50491391
      16.90000000      39.63913832      45.00000000      45.01733497       1.50492054
      17.00000000      39.92476443      45.00000000      45.01756497       1.50492823
      17.10000000      40.15341150      45.00000000      45.01777194       1.50493515
      17.20000000      40.43910013      45.00000000      45.01801250       1.50494319
      17.30000000      40.66779683      45.00000000      45.01822802       1.50495040
      17.40000000      40.95354828      45.00000000      45.01847923       1.50495880
      17.50000000      41.18229484      45.00000000      45.01870336       1.50496629
      17.60000000      41.46810939      45.00000000      45.01896529       1.50497504
      17.70000000      41.69690601      45.00000000      45.01919808       1.50498283
      17.80000000      41.98278394      45.00000000      45.01947078       1.50499194
      17.90000000      42.21163083      45.00000000      45.01971227       1.50500002
      18.00000000      42.49757239      45.00000000      45.01999580       1.50500949
      18.10000000      42.72646973      45.00000000      45.02024602       1.50501786
      18.20000000      43.01247517      45.00000000      45.02054043       1.50502770
      18.30000000      43.29851636      45.00000000      45.02084088       1.50503775
      18.40000000      43.52749268      45.00000000      45.02110473       1.50504657
      18.50000000      43.81359811      45.00000000      45.02141611       1.50505698
      18.60000000      44.04262531      45.00000000      45.02168876       1.50506609
      18.70000000      44.32879518      45.00000000      45.02201109       1.50507687
      18.80000000      44.61500112      45.00000000      45.02233952       1.50508784
      18.90000000      44.84410793      45.00000000      45.02262585       1.50509742
      19.00000000      45.13037863      45.00000000      45.02296525       1.50510876
      19.10000000      45.35953670      45.00000000      45.02326038       1.50511863
      19.20000000      45.64587234      45.00000000      45.02361076       1.50513034
      19.30000000      45.93224432      45.00000000      45.02396724       1.50514226
      19.40000000      46.16148254      45.00000000      45.02427605       1.50515258
      19.50000000      46.44791973      45.00000000      45.02464349       1.50516487
      19.60000000      46.73439342      45.00000000      45.02501702       1.50517735
      19.70000000      46.96371210      45.00000000      45.02533947       1.50518813
      19.80000000      47.25025125      45.00000000      45.02572395       1.50520099
      19.90000000      47.53682704      45.00000000      45.02611448       1.50521404
      20.00000000      47.76622645      45.00000000      45.02645051       1.50522527
      20.10000000      48.05286794      45.00000000      45.02685194       1.50523869
      20.20000000      48.33954619      45.00000000      45.02725940       1.50525232
      20.30000000      48.56902659      45.00000000      45.02760892       1.50526400
      20.40000000      48.85577076      45.00000000      45.02802721       1.50527798
      20.50000000      49.14255184      45.00000000      45.02845149       1.50529217
      20.60000000      49.37211345      45.00000000      45.02881439       1.50530430
      20.70000000      49.65896066      45.00000000      45.02924940       1.50531884
      20.80000000      49.94584488      45.00000000      45.02969035       1.50533358
      20.90000000      50.23276617      45.00000000      45.03013722       1.50534852
      21.00000000      50.46243851      45.00000000      45.03051807       1.50536125
      21.10000000      50.74942621      45.00000000      45.03097553       1.50537654
      21.20000000      51.03645109      45.00000000      45.03143884       1.50539203
      21.30000000      51.32351320      45.00000000      45.03190798       1.50540772
      21.40000000      51.55329666      45.00000000      45.03230647       1.50542104
      21.50000000      51.84042545      45.00000000      45.03278600       1.50543707
      21.60000000      52.12759159      45.00000000      45.03327127       1.50545329
      21.70000000      52.41479511      45.00000000      45.03376226       1.50546970
      21.80000000      52.64469012      45.00000000      45.03417802       1.50548360
      21.90000000      52.93196059      45.00000000      45.03467918       1.50550036
      22.00000000      53.21926858      45.00000000      45.03518595       1.50551730
      22.10000000      53.50661412      45.00000000      45.03569830       1.50553443
      22.20000000      53.79399726      45.00000000      45.03621619       1.50555174
      22.30000000      54.02403386      45.00000000      45.03665315       1.50556635
      22.40000000      54.31148431      45.00000000      45.03718086       1.50558399
      22.50000000      54.59897249      45.00000000      45.03771399       1.50560181
      22.60000000      54.88649844      45.00000000      45.03825250       1.50561981
      22.70000000      55.17406221      45.00000000      45.03879633       1.50563799
      22.80000000      55.40424111      45.00000000      45.03925366       1.50565328
      22.90000000      55.69187257      45.00000000      45.03980690       1.50567178
      23.00000000      55.97954199      45.00000000      45.04036532       1.50569044
