 # applied field (T), theta (degree), phi (degree), abs for RE 3-4
     0.00000     0.00000     0.00000     4.07109     0.00000     0.00000     4.07109
     0.10000     0.49847   360.00000     4.07108     0.47893   360.00000     4.07106
     0.20000     0.94744   360.00000     4.07104     0.91030   360.00000     4.07098
     0.30000     1.44602   360.00000     4.07097     1.38935   360.00000     4.07085
     0.40000     1.94470   360.00000     4.07087     1.86851   360.00000     4.07065
     0.50000     2.39395   360.00000     4.07076     2.30021   360.00000     4.07042
     0.60000     2.89293   360.00000     4.07062     2.77973   360.00000     4.07012
     0.70000     3.39212   360.00000     4.07044     3.25949   360.00000     4.06975
     0.80000     3.84192   360.00000     4.07026     3.69184   360.00000     4.06937
     0.90000     4.34161   360.00000     4.07003     4.17219   360.00000     4.06890
     1.00000     4.84162   360.00000     4.06977     4.65291   360.00000     4.06837
     1.10000     5.29225   360.00000     4.06952     5.08621   360.00000     4.06785
     1.20000     5.79296   360.00000     4.06921     5.56775   360.00000     4.06721
     1.30000     6.29408   360.00000     4.06887     6.04977   360.00000     4.06651
     1.40000     6.79566   360.00000     4.06851     6.53232   360.00000     4.06576
     1.50000     7.29773   360.00000     4.06813     7.01545   360.00000     4.06496
     1.60000     7.75035   360.00000     4.06776     7.45109   360.00000     4.06419
     1.70000     8.25344   360.00000     4.06732     7.93542   360.00000     4.06328
     1.80000     8.75711   360.00000     4.06686     8.42043   360.00000     4.06231
     1.90000     9.26141   360.00000     4.06638     8.90617   360.00000     4.06130
     2.00000     9.76635   360.00000     4.06587     9.39268   360.00000     4.06022
     2.10000    10.27198   360.00000     4.06534     9.88000   360.00000     4.05910
     2.20000    10.77833   360.00000     4.06479    10.36816   360.00000     4.05792
     2.30000    11.28542   360.00000     4.06421    10.85720   360.00000     4.05669
     2.40000    11.79329   360.00000     4.06361    11.34717   360.00000     4.05541
     2.50000    12.30198   360.00000     4.06299    11.83810   360.00000     4.05408
     2.60000    12.81150   360.00000     4.06235    12.33002   360.00000     4.05270
     2.70000    13.37265   360.00000     4.06161    12.87203   360.00000     4.05112
     2.80000    13.88403   360.00000     4.06093    13.36616   360.00000     4.04964
     2.90000    14.39633   360.00000     4.06023    13.86141   360.00000     4.04811
     3.00000    14.90959   360.00000     4.05950    14.35779   360.00000     4.04653
     3.10000    15.47499   360.00000     4.05868    14.90487   360.00000     4.04473
     3.20000    15.99034   360.00000     4.05792    15.40377   360.00000     4.04306
     3.30000    16.55810   360.00000     4.05706    15.95369   360.00000     4.04116
     3.40000    17.07565   360.00000     4.05627    16.45524   360.00000     4.03939
     3.50000    17.64589   360.00000     4.05537    17.00816   360.00000     4.03739
     3.60000    18.21748   360.00000     4.05445    17.56271   360.00000     4.03535
     3.70000    18.79045   360.00000     4.05352    18.11894   360.00000     4.03325
     3.80000    19.31282   360.00000     4.05266    18.62636   360.00000     4.03130
     3.90000    19.88849   360.00000     4.05169    19.18589   360.00000     4.02911
     4.00000    20.46561   360.00000     4.05071    19.74720   360.00000     4.02687
     4.10000    21.04420   360.00000     4.04971    20.31033   360.00000     4.02459
     4.20000    21.67683   360.00000     4.04860    20.92649   360.00000     4.02205
     4.30000    22.25860   360.00000     4.04757    21.49354   360.00000     4.01968
     4.40000    22.84191   360.00000     4.04653    22.06251   360.00000     4.01727
     4.50000    23.47976   360.00000     4.04538    22.68517   360.00000     4.01459
     4.60000    24.06637   360.00000     4.04431    23.25826   360.00000     4.01210
     4.70000    24.70787   360.00000     4.04313    23.88548   360.00000     4.00934
     4.80000    25.35130   360.00000     4.04193    24.51514   360.00000     4.00654
     4.90000    25.99668   360.00000     4.04072    25.14727   360.00000     4.00370
     5.00000    26.64403   360.00000     4.03950    25.78190   360.00000     4.00082
     5.10000    27.29338   360.00000     4.03827    26.41906   360.00000     3.99791
     5.20000    27.94472   360.00000     4.03703    27.05878   360.00000     3.99496
     5.30000    28.65237   360.00000     4.03566    27.75448   360.00000     3.99174
     5.40000    29.30793   360.00000     4.03440    28.39961   360.00000     3.98873
     5.50000    30.02017   360.00000     4.03301    29.10123   360.00000     3.98544
     5.60000    30.73481   360.00000     4.03160    29.80596   360.00000     3.98212
     5.70000    31.45186   360.00000     4.03019    30.51383   360.00000     3.97878
     5.80000    32.22655   360.00000     4.02865    31.27946   360.00000     3.97515
     5.90000    32.94863   360.00000     4.02721    31.99390   360.00000     3.97177
     6.00000    33.72875   360.00000     4.02564    32.76664   360.00000     3.96810
     6.10000    34.51168   360.00000     4.02406    33.54309   360.00000     3.96441
     6.20000    35.29742   360.00000     4.02246    34.32327   360.00000     3.96072
     6.30000    36.08598   360.00000     4.02084    35.10716   360.00000     3.95701
     6.40000    36.93377   360.00000     4.01909    35.95098   360.00000     3.95303
     6.50000    37.78477   360.00000     4.01731    36.79908   360.00000     3.94905
     6.60000    38.63898   360.00000     4.01552    37.65144   360.00000     3.94507
     6.70000    39.55346   360.00000     4.01357    38.56512   360.00000     3.94083
     6.80000    40.47155   360.00000     4.01161    39.48363   360.00000     3.93660
     6.90000    41.39322   360.00000     4.00961    40.40693   360.00000     3.93239
     7.00000    42.37623   360.00000     4.00746    41.39297   360.00000     3.92794
     7.10000    43.36323   360.00000     4.00527    42.38434   360.00000     3.92352
     7.20000    44.41244   360.00000     4.00291    43.43960   360.00000     3.91887
     7.30000    45.46602   360.00000     4.00051    44.50070   360.00000     3.91428
     7.40000    46.52393   360.00000     3.99808    45.56754   360.00000     3.90973
     7.50000    47.70413   360.00000     3.99531    46.75927   360.00000     3.90475
     7.60000    48.83025   360.00000     3.99265    47.89789   360.00000     3.90009
     7.70000    50.08003   360.00000     3.98964    49.16314   360.00000     3.89503
     7.80000    51.33533   360.00000     3.98658    50.43561   360.00000     3.89008
     7.90000    52.71618   360.00000     3.98316    51.83710   360.00000     3.88478
     8.00000    54.10337   360.00000     3.97969    53.24675   360.00000     3.87962
     8.10000    55.55735   360.00000     3.97601    54.72599   360.00000     3.87441
     8.20000    57.13966   360.00000     3.97198    56.33761   360.00000     3.86896
     8.30000    58.79054   360.00000     3.96775    58.02091   360.00000     3.86354
     8.40000    60.57204   360.00000     3.96319    59.83926   360.00000     3.85799
     8.50000    62.48551   360.00000     3.95832    61.79422   360.00000     3.85238
     8.60000    64.59433   360.00000     3.95304    63.95072   360.00000     3.84664
     8.70000    66.96297   360.00000     3.94727    66.37496   360.00000     3.84074
     8.80000    69.59417   360.00000     3.94117    69.06994   360.00000     3.83487
     8.90000    72.67950   360.00000     3.93456    72.23210   360.00000     3.82891
     9.00000    76.60384   360.00000     3.92729    76.25630   360.00000     3.82276
     9.10000    82.33146   360.00000     3.91953    82.13193   360.00000     3.81663
     9.20000    90.00000   360.00000     3.91563    90.00000   360.00000     3.81372
     9.30000    90.00000   360.00000     3.91572    90.00000   360.00000     3.81382
     9.40000    90.00000   360.00000     3.91581    90.00000   360.00000     3.81393
     9.50000    90.00000   360.00000     3.91591    90.00000   360.00000     3.81404
     9.60000    90.00000   360.00000     3.91600    90.00000   360.00000     3.81414
     9.70000    90.00000   360.00000     3.91610    90.00000   360.00000     3.81425
     9.80000    90.00000   360.00000     3.91619    90.00000   360.00000     3.81435
     9.90000    90.00000   360.00000     3.91628    90.00000   360.00000     3.81446
    10.00000    90.00000   360.00000     3.91638    90.00000   360.00000     3.81456
    10.10000    90.00000   360.00000     3.91647    90.00000   360.00000     3.81467
    10.20000    90.00000   360.00000     3.91657    90.00000   360.00000     3.81478
    10.30000    90.00000   360.00000     3.91666    90.00000   360.00000     3.81488
    10.40000    90.00000   360.00000     3.91675    90.00000   360.00000     3.81499
    10.50000    90.00000   360.00000     3.91685    90.00000   360.00000     3.81509
    10.60000    90.00000   360.00000     3.91694    90.00000   360.00000     3.81520
    10.70000    90.00000   360.00000     3.91704    90.00000   360.00000     3.81530
    10.80000    90.00000   360.00000     3.91713    90.00000   360.00000     3.81541
    10.90000    90.00000   360.00000     3.91722    90.00000   360.00000     3.81551
    11.00000    90.00000   360.00000     3.91732    90.00000   360.00000     3.81562
    11.10000    90.00000   360.00000     3.91741    90.00000   360.00000     3.81572
    11.20000    90.00000   360.00000     3.91750    90.00000   360.00000     3.81583
    11.30000    90.00000   360.00000     3.91760    90.00000   360.00000     3.81593
    11.40000    90.00000   360.00000     3.91769    90.00000   360.00000     3.81604
    11.50000    90.00000   360.00000     3.91778    90.00000   360.00000     3.81614
    11.60000    90.00000   360.00000     3.91788    90.00000   360.00000     3.81625
    11.70000    90.00000   360.00000     3.91797    90.00000   360.00000     3.81635
    11.80000    90.00000   360.00000     3.91806    90.00000   360.00000     3.81646
    11.90000    90.00000   360.00000     3.91816    90.00000   360.00000     3.81656
    12.00000    90.00000   360.00000     3.91825    90.00000   360.00000     3.81667
    12.10000    90.00000   360.00000     3.91834    90.00000   360.00000     3.81677
    12.20000    90.00000   360.00000     3.91844    90.00000   360.00000     3.81688
    12.30000    90.00000   360.00000     3.91853    90.00000   360.00000     3.81698
    12.40000    90.00000   360.00000     3.91862    90.00000   360.00000     3.81709
    12.50000    90.00000   360.00000     3.91872    90.00000   360.00000     3.81719
    12.60000    90.00000   360.00000     3.91881    90.00000   360.00000     3.81730
    12.70000    90.00000   360.00000     3.91890    90.00000   360.00000     3.81740
    12.80000    90.00000   360.00000     3.91900    90.00000   360.00000     3.81751
    12.90000    90.00000   360.00000     3.91909    90.00000   360.00000     3.81761
    13.00000    90.00000   360.00000     3.91918    90.00000   360.00000     3.81772
    13.10000    90.00000   360.00000     3.91928    90.00000   360.00000     3.81782
    13.20000    90.00000   360.00000     3.91937    90.00000   360.00000     3.81793
    13.30000    90.00000   360.00000     3.91946    90.00000   360.00000     3.81803
    13.40000    90.00000   360.00000     3.91955    90.00000   360.00000     3.81814
    13.50000    90.00000   360.00000     3.91965    90.00000   360.00000     3.81824
    13.60000    90.00000   360.00000     3.91974    90.00000   360.00000     3.81834
    13.70000    90.00000   360.00000     3.91983    90.00000   360.00000     3.81845
    13.80000    90.00000   360.00000     3.91993    90.00000   360.00000     3.81855
    13.90000    90.00000   360.00000     3.92002    90.00000   360.00000     3.81866
    14.00000    90.00000   360.00000     3.92011    90.00000   360.00000     3.81876
    14.10000    90.00000   360.00000     3.92020    90.00000   360.00000     3.81887
    14.20000    90.00000   360.00000     3.92030    90.00000   360.00000     3.81897
    14.30000    90.00000   360.00000     3.92039    90.00000   360.00000     3.81907
    14.40000    90.00000   360.00000     3.92048    90.00000   360.00000     3.81918
    14.50000    90.00000   360.00000     3.92057    90.00000   360.00000     3.81928
    14.60000    90.00000   360.00000     3.92067    90.00000   360.00000     3.81939
    14.70000    90.00000   360.00000     3.92076    90.00000   360.00000     3.81949
    14.80000    90.00000   360.00000     3.92085    90.00000   360.00000     3.81959
    14.90000    90.00000   360.00000     3.92094    90.00000   360.00000     3.81970
    15.00000    90.00000   360.00000     3.92104    90.00000   360.00000     3.81980
    15.10000    90.00000   360.00000     3.92113    90.00000   360.00000     3.81991
    15.20000    90.00000   360.00000     3.92122    90.00000   360.00000     3.82001
    15.30000    90.00000   360.00000     3.92131    90.00000   360.00000     3.82011
    15.40000    90.00000   360.00000     3.92141    90.00000   360.00000     3.82022
    15.50000    90.00000   360.00000     3.92150    90.00000   360.00000     3.82032
    15.60000    90.00000   360.00000     3.92159    90.00000   360.00000     3.82043
    15.70000    90.00000   360.00000     3.92168    90.00000   360.00000     3.82053
    15.80000    90.00000   360.00000     3.92178    90.00000   360.00000     3.82063
    15.90000    90.00000   360.00000     3.92187    90.00000   360.00000     3.82074
    16.00000    90.00000   360.00000     3.92196    90.00000   360.00000     3.82084
    16.10000    90.00000   360.00000     3.92205    90.00000   360.00000     3.82094
    16.20000    90.00000   360.00000     3.92214    90.00000   360.00000     3.82105
    16.30000    90.00000   360.00000     3.92224    90.00000   360.00000     3.82115
    16.40000    90.00000   360.00000     3.92233    90.00000   360.00000     3.82125
    16.50000    90.00000   360.00000     3.92242    90.00000   360.00000     3.82136
    16.60000    90.00000   360.00000     3.92251    90.00000   360.00000     3.82146
    16.70000    90.00000   360.00000     3.92260    90.00000   360.00000     3.82156
    16.80000    90.00000   360.00000     3.92270    90.00000   360.00000     3.82167
    16.90000    90.00000   360.00000     3.92279    90.00000   360.00000     3.82177
    17.00000    90.00000   360.00000     3.92288    90.00000   360.00000     3.82187
    17.10000    90.00000   360.00000     3.92297    90.00000   360.00000     3.82198
    17.20000    90.00000   360.00000     3.92306    90.00000   360.00000     3.82208
    17.30000    90.00000   360.00000     3.92315    90.00000   360.00000     3.82218
    17.40000    90.00000   360.00000     3.92325    90.00000   360.00000     3.82229
    17.50000    90.00000   360.00000     3.92334    90.00000   360.00000     3.82239
    17.60000    90.00000   360.00000     3.92343    90.00000   360.00000     3.82249
    17.70000    90.00000   360.00000     3.92352    90.00000   360.00000     3.82260
    17.80000    90.00000   360.00000     3.92361    90.00000   360.00000     3.82270
    17.90000    90.00000   360.00000     3.92370    90.00000   360.00000     3.82280
    18.00000    90.00000   360.00000     3.92380    90.00000   360.00000     3.82291
    18.10000    90.00000   360.00000     3.92389    90.00000   360.00000     3.82301
    18.20000    90.00000   360.00000     3.92398    90.00000   360.00000     3.82311
    18.30000    90.00000   360.00000     3.92407    90.00000   360.00000     3.82321
    18.40000    90.00000   360.00000     3.92416    90.00000   360.00000     3.82332
    18.50000    90.00000   360.00000     3.92425    90.00000   360.00000     3.82342
    18.60000    90.00000   360.00000     3.92434    90.00000   360.00000     3.82352
    18.70000    90.00000   360.00000     3.92443    90.00000   360.00000     3.82363
    18.80000    90.00000   360.00000     3.92453    90.00000   360.00000     3.82373
    18.90000    90.00000   360.00000     3.92462    90.00000   360.00000     3.82383
    19.00000    90.00000   360.00000     3.92471    90.00000   360.00000     3.82393
    19.10000    90.00000   360.00000     3.92480    90.00000   360.00000     3.82404
    19.20000    90.00000   360.00000     3.92489    90.00000   360.00000     3.82414
    19.30000    90.00000   360.00000     3.92498    90.00000   360.00000     3.82424
    19.40000    90.00000   360.00000     3.92507    90.00000   360.00000     3.82434
    19.50000    90.00000   360.00000     3.92516    90.00000   360.00000     3.82445
    19.60000    90.00000   360.00000     3.92525    90.00000   360.00000     3.82455
    19.70000    90.00000   360.00000     3.92535    90.00000   360.00000     3.82465
    19.80000    90.00000   360.00000     3.92544    90.00000   360.00000     3.82475
    19.90000    90.00000   360.00000     3.92553    90.00000   360.00000     3.82486
    20.00000    90.00000   360.00000     3.92562    90.00000   360.00000     3.82496
    20.10000    90.00000   360.00000     3.92571    90.00000   360.00000     3.82506
    20.20000    90.00000   360.00000     3.92580    90.00000   360.00000     3.82516
    20.30000    90.00000   360.00000     3.92589    90.00000   360.00000     3.82526
    20.40000    90.00000   360.00000     3.92598    90.00000   360.00000     3.82537
    20.50000    90.00000   360.00000     3.92607    90.00000   360.00000     3.82547
    20.60000    90.00000   360.00000     3.92616    90.00000   360.00000     3.82557
    20.70000    90.00000   360.00000     3.92625    90.00000   360.00000     3.82567
    20.80000    90.00000   360.00000     3.92634    90.00000   360.00000     3.82578
    20.90000    90.00000   360.00000     3.92643    90.00000   360.00000     3.82588
    21.00000    90.00000   360.00000     3.92653    90.00000   360.00000     3.82598
    21.10000    90.00000   360.00000     3.92662    90.00000   360.00000     3.82608
    21.20000    90.00000   360.00000     3.92671    90.00000   360.00000     3.82618
    21.30000    90.00000   360.00000     3.92680    90.00000   360.00000     3.82629
    21.40000    90.00000   360.00000     3.92689    90.00000   360.00000     3.82639
    21.50000    90.00000   360.00000     3.92698    90.00000   360.00000     3.82649
    21.60000    90.00000   360.00000     3.92707    90.00000   360.00000     3.82659
    21.70000    90.00000   360.00000     3.92716    90.00000   360.00000     3.82669
    21.80000    90.00000   360.00000     3.92725    90.00000   360.00000     3.82679
    21.90000    90.00000   360.00000     3.92734    90.00000   360.00000     3.82690
    22.00000    90.00000   360.00000     3.92743    90.00000   360.00000     3.82700
    22.10000    90.00000   360.00000     3.92752    90.00000   360.00000     3.82710
    22.20000    90.00000   360.00000     3.92761    90.00000   360.00000     3.82720
    22.30000    90.00000   360.00000     3.92770    90.00000   360.00000     3.82730
    22.40000    90.00000   360.00000     3.92779    90.00000   360.00000     3.82740
    22.50000    90.00000   360.00000     3.92788    90.00000   360.00000     3.82751
    22.60000    90.00000   360.00000     3.92797    90.00000   360.00000     3.82761
    22.70000    90.00000   360.00000     3.92806    90.00000   360.00000     3.82771
    22.80000    90.00000   360.00000     3.92815    90.00000   360.00000     3.82781
    22.90000    90.00000   360.00000     3.92824    90.00000   360.00000     3.82791
    23.00000    90.00000   360.00000     3.92833    90.00000   360.00000     3.82801
    23.10000    90.00000   360.00000     3.92842    90.00000   360.00000     3.82811
    23.20000    90.00000   360.00000     3.92851    90.00000   360.00000     3.82821
    23.30000    90.00000   360.00000     3.92860    90.00000   360.00000     3.82832
