 # applied field (T), theta (degree), phi (degree), abs [muB/unitcell], abs [T]
       0.00000000       0.00000000       0.00000000      51.65090472       1.77727876
       0.10000000       0.34102638     360.00000000      51.65090537       1.77727878
       0.20000000       0.68205331     360.00000000      51.65090735       1.77727885
       0.30000000       1.02308137     360.00000000      51.65091064       1.77727897
       0.40000000       1.30737475     360.00000000      51.65091501       1.77727912
       0.50000000       1.64840629     360.00000000      51.65092089       1.77727932
       0.60000000       1.98944053     360.00000000      51.65092812       1.77727957
       0.70000000       2.33047802     360.00000000      51.65093671       1.77727986
       0.80000000       2.67151931     360.00000000      51.65094667       1.77728020
       0.90000000       3.01256498     360.00000000      51.65095801       1.77728060
       1.00000000       3.35361556     360.00000000      51.65097076       1.77728103
       1.10000000       3.69467162     360.00000000      51.65098495       1.77728152
       1.20000000       4.03573372     360.00000000      51.65100059       1.77728206
       1.30000000       4.32005912     360.00000000      51.65101676       1.77728262
       1.40000000       4.66113370     360.00000000      51.65103529       1.77728325
       1.50000000       5.00221587     360.00000000      51.65105536       1.77728395
       1.60000000       5.34330620     360.00000000      51.65107700       1.77728469
       1.70000000       5.68440524     360.00000000      51.65110025       1.77728549
       1.80000000       6.02551353     360.00000000      51.65112513       1.77728635
       1.90000000       6.36663163     360.00000000      51.65115170       1.77728726
       2.00000000       6.70776008     360.00000000      51.65117999       1.77728823
       2.10000000       7.04889943     360.00000000      51.65121005       1.77728927
       2.20000000       7.39005024     360.00000000      51.65124191       1.77729036
       2.30000000       7.73121304     360.00000000      51.65127564       1.77729152
       2.40000000       8.07238837     360.00000000      51.65131128       1.77729275
       2.50000000       8.41357679     360.00000000      51.65134887       1.77729404
       2.60000000       8.75477883     360.00000000      51.65138848       1.77729541
       2.70000000       9.09599503     360.00000000      51.65143015       1.77729684
       2.80000000       9.43722593     360.00000000      51.65147395       1.77729835
       2.90000000       9.77847207     360.00000000      51.65151993       1.77729993
       3.00000000      10.11973398     360.00000000      51.65156815       1.77730159
       3.10000000      10.46101220     360.00000000      51.65161867       1.77730333
       3.20000000      10.80230725     360.00000000      51.65167155       1.77730515
       3.30000000      11.14361966     360.00000000      51.65172685       1.77730705
       3.40000000      11.48494996     360.00000000      51.65178465       1.77730904
       3.50000000      11.82629868     360.00000000      51.65184500       1.77731112
       3.60000000      12.16766634     360.00000000      51.65190798       1.77731328
       3.70000000      12.50905345     360.00000000      51.65197365       1.77731554
       3.80000000      12.90726265     360.00000000      51.65204794       1.77731810
       3.90000000      13.24869374     360.00000000      51.65211953       1.77732056
       4.00000000      13.59014593     360.00000000      51.65219403       1.77732313
       4.10000000      13.93161971     360.00000000      51.65227152       1.77732579
       4.20000000      14.27311558     360.00000000      51.65235206       1.77732856
       4.30000000      14.67145532     360.00000000      51.65244345       1.77733171
       4.40000000      15.01300087     360.00000000      51.65253072       1.77733471
       4.50000000      15.35457010     360.00000000      51.65262128       1.77733783
       4.60000000      15.75299762     360.00000000      51.65272422       1.77734137
       4.70000000      16.09461991     360.00000000      51.65282202       1.77734473
       4.80000000      16.43626743     360.00000000      51.65292334       1.77734822
       4.90000000      16.83478847     360.00000000      51.65303870       1.77735219
       5.00000000      17.17649236     360.00000000      51.65314776       1.77735594
       5.10000000      17.57508064     360.00000000      51.65327209       1.77736022
       5.20000000      17.91684313     360.00000000      51.65338924       1.77736425
       5.30000000      18.31550123     360.00000000      51.65352293       1.77736885
       5.40000000      18.65732448     360.00000000      51.65364851       1.77737317
       5.50000000      19.05605491     360.00000000      51.65379196       1.77737811
       5.60000000      19.39794104     360.00000000      51.65392631       1.77738273
       5.70000000      19.79674625     360.00000000      51.65407992       1.77738802
       5.80000000      20.13869733     360.00000000      51.65422335       1.77739295
       5.90000000      20.53757971     360.00000000      51.65438749       1.77739860
       6.00000000      20.93650467     360.00000000      51.65455739       1.77740445
       6.10000000      21.33547287     360.00000000      51.65473315       1.77741050
       6.20000000      21.73448497     360.00000000      51.65491487       1.77741675
       6.30000000      22.07661544     360.00000000      51.65508336       1.77742255
       6.40000000      22.47571063     360.00000000      51.65527653       1.77742919
       6.50000000      22.87485152     360.00000000      51.65547594       1.77743605
       6.60000000      23.27403870     360.00000000      51.65568166       1.77744313
       6.70000000      23.67327278     360.00000000      51.65589380       1.77745043
       6.80000000      24.07255432     360.00000000      51.65611241       1.77745796
       6.90000000      24.52885100     360.00000000      51.65636177       1.77746654
       7.00000000      24.92823626     360.00000000      51.65659444       1.77747454
       7.10000000      25.32767071     360.00000000      51.65683381       1.77748278
       7.20000000      25.72715486     360.00000000      51.65707995       1.77749125
       7.30000000      26.18368632     360.00000000      51.65736070       1.77750091
       7.40000000      26.58327877     360.00000000      51.65762143       1.77750988
       7.50000000      27.03993556     360.00000000      51.65791878       1.77752011
       7.60000000      27.43963844     360.00000000      51.65819429       1.77752959
       7.70000000      27.89642291     360.00000000      51.65850845       1.77754040
       7.80000000      28.35327645     360.00000000      51.65883159       1.77755152
       7.90000000      28.81019964     360.00000000      51.65916375       1.77756295
       8.00000000      29.26719302     360.00000000      51.65950493       1.77757469
       8.10000000      29.72425712     360.00000000      51.65985516       1.77758674
       8.20000000      30.18139239     360.00000000      51.66021442       1.77759910
       8.30000000      30.63859928     360.00000000      51.66058269       1.77761177
       8.40000000      31.09587819     360.00000000      51.66095994       1.77762476
       8.50000000      31.61033261     360.00000000      51.66138637       1.77763943
       8.60000000      32.06776591     360.00000000      51.66178250       1.77765306
       8.70000000      32.58239522     360.00000000      51.66222989       1.77766845
       8.80000000      33.09711776     360.00000000      51.66268819       1.77768422
       8.90000000      33.61193382     360.00000000      51.66315728       1.77770037
       9.00000000      34.12684360     360.00000000      51.66363701       1.77771687
       9.10000000      34.64184727     360.00000000      51.66412719       1.77773374
       9.20000000      35.15694490     360.00000000      51.66462765       1.77775096
       9.30000000      35.72932457     360.00000000      51.66518743       1.77777022
       9.40000000      36.30182070     360.00000000      51.66575922       1.77778990
       9.50000000      36.87443312     360.00000000      51.66634270       1.77780997
       9.60000000      37.44716153     360.00000000      51.66693748       1.77783044
       9.70000000      38.02000551     360.00000000      51.66754317       1.77785128
       9.80000000      38.65021302     360.00000000      51.66821412       1.77787437
       9.90000000      39.28055953     360.00000000      51.66889711       1.77789787
      10.00000000      39.91104406     360.00000000      51.66959151       1.77792176
      10.10000000      40.59895347     360.00000000      51.67035449       1.77794802
      10.20000000      41.28702473     360.00000000      51.67112933       1.77797468
      10.30000000      41.97525591     360.00000000      51.67191507       1.77800172
      10.40000000      42.72097473     360.00000000      51.67277127       1.77803118
      10.50000000      43.46687646     360.00000000      51.67363784       1.77806100
      10.60000000      44.27031715     360.00000000      51.67457545       1.77809326
      10.70000000      45.07396250     360.00000000      51.67552189       1.77812582
      10.80000000      45.93519744     360.00000000      51.67653854       1.77816081
      10.90000000      46.85406221     360.00000000      51.67762476       1.77819818
      11.00000000      47.77317456     360.00000000      51.67871538       1.77823571
      11.10000000      48.80740193     360.00000000      51.67993538       1.77827769
      11.20000000      49.89937654     360.00000000      51.68121792       1.77832182
      11.30000000      51.04913416     360.00000000      51.68255847       1.77836795
      11.40000000      52.25670734     360.00000000      51.68395137       1.77841588
      11.50000000      53.63714067     360.00000000      51.68551322       1.77846962
      11.60000000      55.13303654     360.00000000      51.68716799       1.77852656
      11.70000000      56.80200608     360.00000000      51.68895825       1.77858816
      11.80000000      58.70171988     360.00000000      51.69091428       1.77865547
      11.90000000      60.88990011     360.00000000      51.69304873       1.77872891
      12.00000000      63.48190689     360.00000000      51.69539945       1.77880980
      12.10000000      66.65080234     360.00000000      51.69799799       1.77889921
      12.20000000      70.62738705     360.00000000      51.70081914       1.77899629
      12.30000000      75.87314423     360.00000000      51.70378115       1.77909821
      12.40000000      84.57955142     360.00000000      51.70672433       1.77919948
      12.50000000      90.00000000     360.00000000      51.70728039       1.77921862
      12.60000000      90.00000000     360.00000000      51.70732533       1.77922016
      12.70000000      90.00000000     360.00000000      51.70737027       1.77922171
      12.80000000      90.00000000     360.00000000      51.70741522       1.77922326
      12.90000000      90.00000000     360.00000000      51.70746017       1.77922480
      13.00000000      90.00000000     360.00000000      51.70750513       1.77922635
      13.10000000      90.00000000     360.00000000      51.70755010       1.77922790
      13.20000000      90.00000000     360.00000000      51.70759507       1.77922944
      13.30000000      90.00000000     360.00000000      51.70764004       1.77923099
      13.40000000      90.00000000     360.00000000      51.70768502       1.77923254
      13.50000000      90.00000000     360.00000000      51.70773001       1.77923409
      13.60000000      90.00000000     360.00000000      51.70777500       1.77923564
      13.70000000      90.00000000     360.00000000      51.70782000       1.77923718
      13.80000000      90.00000000     360.00000000      51.70786500       1.77923873
      13.90000000      90.00000000     360.00000000      51.70791001       1.77924028
      14.00000000      90.00000000     360.00000000      51.70795502       1.77924183
      14.10000000      90.00000000     360.00000000      51.70800004       1.77924338
      14.20000000      90.00000000     360.00000000      51.70804506       1.77924493
      14.30000000      90.00000000     360.00000000      51.70809009       1.77924648
      14.40000000      90.00000000     360.00000000      51.70813513       1.77924803
      14.50000000      90.00000000     360.00000000      51.70818016       1.77924958
      14.60000000      90.00000000     360.00000000      51.70822521       1.77925113
      14.70000000      90.00000000     360.00000000      51.70827026       1.77925268
      14.80000000      90.00000000     360.00000000      51.70831532       1.77925423
      14.90000000      90.00000000     360.00000000      51.70836038       1.77925578
      15.00000000      90.00000000     360.00000000      51.70840544       1.77925733
      15.10000000      90.00000000     360.00000000      51.70845051       1.77925888
      15.20000000      90.00000000     360.00000000      51.70849559       1.77926043
      15.30000000      90.00000000     360.00000000      51.70854067       1.77926198
      15.40000000      90.00000000     360.00000000      51.70858576       1.77926353
      15.50000000      90.00000000     360.00000000      51.70863085       1.77926509
      15.60000000      90.00000000     360.00000000      51.70867595       1.77926664
      15.70000000      90.00000000     360.00000000      51.70872106       1.77926819
      15.80000000      90.00000000     360.00000000      51.70876617       1.77926974
      15.90000000      90.00000000     360.00000000      51.70881128       1.77927129
      16.00000000      90.00000000     360.00000000      51.70885640       1.77927285
      16.10000000      90.00000000     360.00000000      51.70890153       1.77927440
      16.20000000      90.00000000     360.00000000      51.70894666       1.77927595
      16.30000000      90.00000000     360.00000000      51.70899179       1.77927751
      16.40000000      90.00000000     360.00000000      51.70903693       1.77927906
      16.50000000      90.00000000     360.00000000      51.70908208       1.77928061
      16.60000000      90.00000000     360.00000000      51.70912723       1.77928217
      16.70000000      90.00000000     360.00000000      51.70917239       1.77928372
      16.80000000      90.00000000     360.00000000      51.70921755       1.77928527
      16.90000000      90.00000000     360.00000000      51.70926272       1.77928683
      17.00000000      90.00000000     360.00000000      51.70930789       1.77928838
      17.10000000      90.00000000     360.00000000      51.70935307       1.77928994
      17.20000000      90.00000000     360.00000000      51.70939826       1.77929149
      17.30000000      90.00000000     360.00000000      51.70944345       1.77929305
      17.40000000      90.00000000     360.00000000      51.70948864       1.77929460
      17.50000000      90.00000000     360.00000000      51.70953384       1.77929616
      17.60000000      90.00000000     360.00000000      51.70957905       1.77929771
      17.70000000      90.00000000     360.00000000      51.70962426       1.77929927
      17.80000000      90.00000000     360.00000000      51.70966947       1.77930082
      17.90000000      90.00000000     360.00000000      51.70971470       1.77930238
      18.00000000      90.00000000     360.00000000      51.70975992       1.77930394
      18.10000000      90.00000000     360.00000000      51.70980516       1.77930549
      18.20000000      90.00000000     360.00000000      51.70985039       1.77930705
      18.30000000      90.00000000     360.00000000      51.70989564       1.77930861
      18.40000000      90.00000000     360.00000000      51.70994089       1.77931016
      18.50000000      90.00000000     360.00000000      51.70998614       1.77931172
      18.60000000      90.00000000     360.00000000      51.71003140       1.77931328
      18.70000000      90.00000000     360.00000000      51.71007667       1.77931484
      18.80000000      90.00000000     360.00000000      51.71012194       1.77931639
      18.90000000      90.00000000     360.00000000      51.71016721       1.77931795
      19.00000000      90.00000000     360.00000000      51.71021249       1.77931951
      19.10000000      90.00000000     360.00000000      51.71025778       1.77932107
      19.20000000      90.00000000     360.00000000      51.71030307       1.77932263
      19.30000000      90.00000000     360.00000000      51.71034837       1.77932418
      19.40000000      90.00000000     360.00000000      51.71039367       1.77932574
      19.50000000      90.00000000     360.00000000      51.71043898       1.77932730
      19.60000000      90.00000000     360.00000000      51.71048429       1.77932886
      19.70000000      90.00000000     360.00000000      51.71052961       1.77933042
      19.80000000      90.00000000     360.00000000      51.71057494       1.77933198
      19.90000000      90.00000000     360.00000000      51.71062027       1.77933354
      20.00000000      90.00000000     360.00000000      51.71066560       1.77933510
      20.10000000      90.00000000     360.00000000      51.71071094       1.77933666
      20.20000000      90.00000000     360.00000000      51.71075629       1.77933822
      20.30000000      90.00000000     360.00000000      51.71080164       1.77933978
      20.40000000      90.00000000     360.00000000      51.71084700       1.77934134
      20.50000000      90.00000000     360.00000000      51.71089236       1.77934290
      20.60000000      90.00000000     360.00000000      51.71093773       1.77934446
      20.70000000      90.00000000     360.00000000      51.71098310       1.77934602
      20.80000000      90.00000000     360.00000000      51.71102848       1.77934759
      20.90000000      90.00000000     360.00000000      51.71107386       1.77934915
      21.00000000      90.00000000     360.00000000      51.71111925       1.77935071
      21.10000000      90.00000000     360.00000000      51.71116465       1.77935227
      21.20000000      90.00000000     360.00000000      51.71121005       1.77935383
      21.30000000      90.00000000     360.00000000      51.71125545       1.77935540
      21.40000000      90.00000000     360.00000000      51.71130086       1.77935696
      21.50000000      90.00000000     360.00000000      51.71134628       1.77935852
      21.60000000      90.00000000     360.00000000      51.71139170       1.77936008
      21.70000000      90.00000000     360.00000000      51.71143713       1.77936165
      21.80000000      90.00000000     360.00000000      51.71148256       1.77936321
      21.90000000      90.00000000     360.00000000      51.71152800       1.77936477
      22.00000000      90.00000000     360.00000000      51.71157344       1.77936634
      22.10000000      90.00000000     360.00000000      51.71161889       1.77936790
      22.20000000      90.00000000     360.00000000      51.71166434       1.77936947
      22.30000000      90.00000000     360.00000000      51.71170980       1.77937103
      22.40000000      90.00000000     360.00000000      51.71175527       1.77937259
      22.50000000      90.00000000     360.00000000      51.71180074       1.77937416
      22.60000000      90.00000000     360.00000000      51.71184622       1.77937572
      22.70000000      90.00000000     360.00000000      51.71189170       1.77937729
      22.80000000      90.00000000     360.00000000      51.71193719       1.77937885
      22.90000000      90.00000000     360.00000000      51.71198268       1.77938042
      23.00000000      90.00000000     360.00000000      51.71202818       1.77938199
