 # applied field (T), theta (degree), phi (degree), abs [muB/unitcell], abs [T]
       0.00000000       0.00000000       0.00000000      45.00808415       1.50461129
       0.10000000       0.22648194      45.00000000      45.00808345       1.50461127
       0.20000000       0.45296404      45.00000000      45.00808135       1.50461120
       0.30000000       0.67944646      45.00000000      45.00807785       1.50461108
       0.40000000       0.90592935      45.00000000      45.00807295       1.50461092
       0.50000000       1.13241286      45.00000000      45.00806665       1.50461071
       0.60000000       1.35889717      45.00000000      45.00805896       1.50461045
       0.70000000       1.58538242      45.00000000      45.00804988       1.50461014
       0.80000000       1.81186877      45.00000000      45.00803942       1.50460979
       0.90000000       2.03835638      45.00000000      45.00802757       1.50460940
       1.00000000       2.32129657      45.00000000      45.00800903       1.50460878
       1.10000000       2.54778760      45.00000000      45.00799391       1.50460827
       1.20000000       2.77428041      45.00000000      45.00797744       1.50460772
       1.30000000       3.00077514      45.00000000      45.00795961       1.50460713
       1.40000000       3.22727196      45.00000000      45.00794043       1.50460649
       1.50000000       3.45377102      45.00000000      45.00791991       1.50460580
       1.60000000       3.68027247      45.00000000      45.00789807       1.50460507
       1.70000000       3.90677649      45.00000000      45.00787490       1.50460430
       1.80000000       4.13328322      45.00000000      45.00785042       1.50460348
       1.90000000       4.35979281      45.00000000      45.00782464       1.50460262
       2.00000000       4.58630543      45.00000000      45.00779758       1.50460171
       2.10000000       4.81282123      45.00000000      45.00776924       1.50460076
       2.20000000       5.03934037      45.00000000      45.00773963       1.50459977
       2.30000000       5.26586300      45.00000000      45.00770877       1.50459874
       2.40000000       5.49238928      45.00000000      45.00767668       1.50459767
       2.50000000       5.71891937      45.00000000      45.00764336       1.50459655
       2.60000000       5.94545341      45.00000000      45.00760884       1.50459540
       2.70000000       6.22845579      45.00000000      45.00755921       1.50459374
       2.80000000       6.45499934      45.00000000      45.00752185       1.50459249
       2.90000000       6.68154735      45.00000000      45.00748334       1.50459121
       3.00000000       6.90809999      45.00000000      45.00744369       1.50458988
       3.10000000       7.13465740      45.00000000      45.00740292       1.50458852
       3.20000000       7.36121973      45.00000000      45.00736105       1.50458712
       3.30000000       7.58778715      45.00000000      45.00731809       1.50458568
       3.40000000       7.81435981      45.00000000      45.00727407       1.50458421
       3.50000000       8.04093785      45.00000000      45.00722901       1.50458270
       3.60000000       8.26752144      45.00000000      45.00718292       1.50458116
       3.70000000       8.49411072      45.00000000      45.00713583       1.50457959
       3.80000000       8.72070585      45.00000000      45.00708777       1.50457798
       3.90000000       8.94730698      45.00000000      45.00703874       1.50457634
       4.00000000       9.17391426      45.00000000      45.00698878       1.50457467
       4.10000000       9.45701179      45.00000000      45.00691782       1.50457230
       4.20000000       9.68363351      45.00000000      45.00686568       1.50457056
       4.30000000       9.91026189      45.00000000      45.00681267       1.50456878
       4.40000000      10.13689706      45.00000000      45.00675883       1.50456699
       4.50000000      10.36353918      45.00000000      45.00670418       1.50456516
       4.60000000      10.59018839      45.00000000      45.00664876       1.50456331
       4.70000000      10.81684486      45.00000000      45.00659257       1.50456143
       4.80000000      11.04350872      45.00000000      45.00653566       1.50455952
       4.90000000      11.27018013      45.00000000      45.00647805       1.50455760
       5.00000000      11.49685923      45.00000000      45.00641976       1.50455565
       5.10000000      11.72354618      45.00000000      45.00636082       1.50455368
       5.20000000      11.95024112      45.00000000      45.00630127       1.50455169
       5.30000000      12.23345145      45.00000000      45.00621676       1.50454886
       5.40000000      12.46016498      45.00000000      45.00615576       1.50454682
       5.50000000      12.68688698      45.00000000      45.00609425       1.50454477
       5.60000000      12.91361759      45.00000000      45.00603224       1.50454270
       5.70000000      13.14035698      45.00000000      45.00596978       1.50454061
       5.80000000      13.36710527      45.00000000      45.00590689       1.50453850
       5.90000000      13.59386262      45.00000000      45.00584360       1.50453639
       6.00000000      13.82062916      45.00000000      45.00577995       1.50453426
       6.10000000      14.04740506      45.00000000      45.00571597       1.50453212
       6.20000000      14.27419044      45.00000000      45.00565169       1.50452997
       6.30000000      14.55751659      45.00000000      45.00556007       1.50452691
       6.40000000      14.78432392      45.00000000      45.00549508       1.50452474
       6.50000000      15.01114120      45.00000000      45.00542990       1.50452256
       6.60000000      15.23796857      45.00000000      45.00536458       1.50452038
       6.70000000      15.46480619      45.00000000      45.00529913       1.50451819
       6.80000000      15.69165418      45.00000000      45.00523360       1.50451600
       6.90000000      15.91851268      45.00000000      45.00516802       1.50451380
       7.00000000      16.14538185      45.00000000      45.00510243       1.50451161
       7.10000000      16.37226181      45.00000000      45.00503687       1.50450942
       7.20000000      16.65570874      45.00000000      45.00494264       1.50450627
       7.30000000      16.88261358      45.00000000      45.00487711       1.50450408
       7.40000000      17.10952967      45.00000000      45.00481172       1.50450189
       7.50000000      17.33645713      45.00000000      45.00474651       1.50449971
       7.60000000      17.56339612      45.00000000      45.00468153       1.50449754
       7.70000000      17.79034676      45.00000000      45.00461680       1.50449538
       7.80000000      18.01730918      45.00000000      45.00455236       1.50449322
       7.90000000      18.30086123      45.00000000      45.00445884       1.50449010
       8.00000000      18.52785076      45.00000000      45.00439506       1.50448796
       8.10000000      18.75485252      45.00000000      45.00433170       1.50448585
       8.20000000      18.98186663      45.00000000      45.00426881       1.50448374
       8.30000000      19.20889322      45.00000000      45.00420641       1.50448166
       8.40000000      19.43593244      45.00000000      45.00414455       1.50447959
       8.50000000      19.66298439      45.00000000      45.00408328       1.50447754
       8.60000000      19.94665042      45.00000000      45.00399304       1.50447453
       8.70000000      20.17373163      45.00000000      45.00393307       1.50447252
       8.80000000      20.40082601      45.00000000      45.00387381       1.50447054
       8.90000000      20.62793368      45.00000000      45.00381530       1.50446858
       9.00000000      20.85505477      45.00000000      45.00375759       1.50446665
       9.10000000      21.08218940      45.00000000      45.00370070       1.50446475
       9.20000000      21.36596055      45.00000000      45.00361544       1.50446190
       9.30000000      21.59312623      45.00000000      45.00356044       1.50446006
       9.40000000      21.82030584      45.00000000      45.00350640       1.50445826
       9.50000000      22.04749953      45.00000000      45.00345338       1.50445648
       9.60000000      22.27470741      45.00000000      45.00340140       1.50445475
       9.70000000      22.55857164      45.00000000      45.00332186       1.50445209
       9.80000000      22.78581201      45.00000000      45.00327226       1.50445043
       9.90000000      23.01306695      45.00000000      45.00322384       1.50444881
      10.00000000      23.24033659      45.00000000      45.00317665       1.50444723
      10.10000000      23.46762105      45.00000000      45.00313073       1.50444570
      10.20000000      23.75158254      45.00000000      45.00305837       1.50444328
      10.30000000      23.97890088      45.00000000      45.00301532       1.50444184
      10.40000000      24.20623441      45.00000000      45.00297368       1.50444045
      10.50000000      24.43358324      45.00000000      45.00293349       1.50443910
      10.60000000      24.66094749      45.00000000      45.00289478       1.50443781
      10.70000000      24.94501026      45.00000000      45.00283107       1.50443568
      10.80000000      25.17240973      45.00000000      45.00279573       1.50443450
      10.90000000      25.39982498      45.00000000      45.00276202       1.50443337
      11.00000000      25.62725610      45.00000000      45.00272997       1.50443230
      11.10000000      25.91140374      45.00000000      45.00267431       1.50443044
      11.20000000      26.13887113      45.00000000      45.00264604       1.50442950
      11.30000000      26.36635476      45.00000000      45.00261956       1.50442861
      11.40000000      26.59385472      45.00000000      45.00259493       1.50442779
      11.50000000      26.82137112      45.00000000      45.00257218       1.50442703
      11.60000000      27.10562690      45.00000000      45.00252782       1.50442554
      11.70000000      27.33318080      45.00000000      45.00250934       1.50442493
      11.80000000      27.56075147      45.00000000      45.00249287       1.50442438
      11.90000000      27.78833900      45.00000000      45.00247846       1.50442389
      12.00000000      28.07268498      45.00000000      45.00244428       1.50442275
      12.10000000      28.30031097      45.00000000      45.00243453       1.50442242
      12.20000000      28.52795415      45.00000000      45.00242697       1.50442217
      12.30000000      28.81237066      45.00000000      45.00240118       1.50442131
      12.40000000      29.04005300      45.00000000      45.00239857       1.50442122
      12.50000000      29.26775283      45.00000000      45.00239829       1.50442121
      12.60000000      29.49547024      45.00000000      45.00240035       1.50442128
      12.70000000      29.77998082      45.00000000      45.00238638       1.50442082
      12.80000000      30.00773827      45.00000000      45.00239379       1.50442106
      12.90000000      30.23551359      45.00000000      45.00240368       1.50442139
      13.00000000      30.52009756      45.00000000      45.00239933       1.50442125
      13.10000000      30.74791358      45.00000000      45.00241484       1.50442177
      13.20000000      30.97574774      45.00000000      45.00243296       1.50442237
      13.30000000      31.26040625      45.00000000      45.00243875       1.50442257
      13.40000000      31.48828173      45.00000000      45.00246278       1.50442337
      13.50000000      31.71617561      45.00000000      45.00248953       1.50442426
      13.60000000      32.00090979      45.00000000      45.00250597       1.50442481
      13.70000000      32.22884559      45.00000000      45.00253890       1.50442591
      13.80000000      32.45680006      45.00000000      45.00257468       1.50442711
      13.90000000      32.74161096      45.00000000      45.00260227       1.50442803
      14.00000000      32.96960791      45.00000000      45.00264449       1.50442944
      14.10000000      33.19762377      45.00000000      45.00268967       1.50443095
      14.20000000      33.48251243      45.00000000      45.00272889       1.50443227
      14.30000000      33.71057131      45.00000000      45.00278078       1.50443400
      14.40000000      33.93864934      45.00000000      45.00283574       1.50443584
      14.50000000      34.22361673      45.00000000      45.00288706       1.50443755
      14.60000000      34.45173829      45.00000000      45.00294897       1.50443962
      14.70000000      34.67987923      45.00000000      45.00301407       1.50444180
      14.80000000      34.96492628      45.00000000      45.00307794       1.50444393
      14.90000000      35.19311124      45.00000000      45.00315023       1.50444635
      15.00000000      35.42131578      45.00000000      45.00322581       1.50444888
      15.10000000      35.70644338      45.00000000      45.00330268       1.50445145
      15.20000000      35.93469242      45.00000000      45.00338568       1.50445422
      15.30000000      36.21987636      45.00000000      45.00347177       1.50445710
      15.40000000      36.44817021      45.00000000      45.00356236       1.50446013
      15.50000000      36.67648396      45.00000000      45.00365641       1.50446327
      15.60000000      36.96174986      45.00000000      45.00375620       1.50446661
      15.70000000      37.19010885      45.00000000      45.00385805       1.50447001
      15.80000000      37.47543202      45.00000000      45.00396754       1.50447367
      15.90000000      37.70383653      45.00000000      45.00407733       1.50447734
      16.00000000      37.93226123      45.00000000      45.00419073       1.50448113
      16.10000000      38.21766763      45.00000000      45.00431459       1.50448527
      16.20000000      38.44613825      45.00000000      45.00443613       1.50448934
      16.30000000      38.73160278      45.00000000      45.00457012       1.50449382
      16.40000000      38.96011954      45.00000000      45.00469995       1.50449816
      16.50000000      39.24564253      45.00000000      45.00484425       1.50450298
      16.60000000      39.47420570      45.00000000      45.00498249       1.50450760
      16.70000000      39.75978746      45.00000000      45.00513726       1.50451278
      16.80000000      39.98839727      45.00000000      45.00528403       1.50451768
      16.90000000      40.21702776      45.00000000      45.00543466       1.50452272
      17.00000000      40.50269478      45.00000000      45.00560485       1.50452841
      17.10000000      40.73137223      45.00000000      45.00576418       1.50453373
      17.20000000      41.01709874      45.00000000      45.00594522       1.50453979
      17.30000000      41.24582336      45.00000000      45.00611336       1.50454541
      17.40000000      41.53160963      45.00000000      45.00630538       1.50455183
      17.50000000      41.76038163      45.00000000      45.00648244       1.50455775
      17.60000000      42.04622792      45.00000000      45.00668558       1.50456454
      17.70000000      42.27504750      45.00000000      45.00687165       1.50457076
      17.80000000      42.56095408      45.00000000      45.00708604       1.50457792
      17.90000000      42.78982143      45.00000000      45.00728122       1.50458445
      18.00000000      43.07578854      45.00000000      45.00750698       1.50459200
      18.10000000      43.30470384      45.00000000      45.00771137       1.50459883
      18.20000000      43.59073172      45.00000000      45.00794860       1.50460676
      18.30000000      43.81969514      45.00000000      45.00816227       1.50461390
      18.40000000      44.10578403      45.00000000      45.00841110       1.50462222
      18.50000000      44.33479576      45.00000000      45.00863413       1.50462968
      18.60000000      44.62094588      45.00000000      45.00889465       1.50463839
      18.70000000      44.85000608      45.00000000      45.00912711       1.50464616
      18.80000000      45.13621765      45.00000000      45.00939942       1.50465526
      18.90000000      45.36532649      45.00000000      45.00964138       1.50466335
      19.00000000      45.65159974      45.00000000      45.00992555       1.50467285
      19.10000000      45.88075736      45.00000000      45.01017708       1.50468126
      19.20000000      46.16709250      45.00000000      45.01047320       1.50469116
      19.30000000      46.39629908      45.00000000      45.01073434       1.50469989
      19.40000000      46.68269632      45.00000000      45.01104248       1.50471019
      19.50000000      46.91195201      45.00000000      45.01131329       1.50471924
      19.60000000      47.19841156      45.00000000      45.01163352       1.50472994
      19.70000000      47.42771651      45.00000000      45.01191403       1.50473932
      19.80000000      47.71423858      45.00000000      45.01224640       1.50475043
      19.90000000      47.94359295      45.00000000      45.01253665       1.50476014
      20.00000000      48.23017776      45.00000000      45.01288121       1.50477165
      20.10000000      48.45958170      45.00000000      45.01318123       1.50478168
      20.20000000      48.74622945      45.00000000      45.01353802       1.50479361
      20.30000000      49.03291248      45.00000000      45.01390162       1.50480577
      20.40000000      49.26239403      45.00000000      45.01421690       1.50481631
      20.50000000      49.54914034      45.00000000      45.01459278       1.50482887
      20.60000000      49.77867187      45.00000000      45.01491788       1.50483974
      20.70000000      50.06548169      45.00000000      45.01530605       1.50485272
      20.80000000      50.29506336      45.00000000      45.01564098       1.50486391
      20.90000000      50.58193690      45.00000000      45.01604147       1.50487730
      21.00000000      50.81156888      45.00000000      45.01638622       1.50488883
      21.10000000      51.09850637      45.00000000      45.01679902       1.50490263
      21.20000000      51.32818884      45.00000000      45.01715359       1.50491448
      21.30000000      51.61519051      45.00000000      45.01757869       1.50492869
      21.40000000      51.90222819      45.00000000      45.01801063       1.50494313
      21.50000000      52.13198973      45.00000000      45.01838046       1.50495549
      21.60000000      52.41909197      45.00000000      45.01882467       1.50497034
      21.70000000      52.64890446      45.00000000      45.01920426       1.50498303
      21.80000000      52.93607153      45.00000000      45.01966072       1.50499829
      21.90000000      53.16593515      45.00000000      45.02005004       1.50501131
      22.00000000      53.45316730      45.00000000      45.02051869       1.50502697
      22.10000000      53.74043597      45.00000000      45.02099410       1.50504287
      22.20000000      53.97037975      45.00000000      45.02139848       1.50505639
      22.30000000      54.25771394      45.00000000      45.02188601       1.50507268
      22.40000000      54.48770937      45.00000000      45.02229999       1.50508652
      22.50000000      54.77510935      45.00000000      45.02279954       1.50510322
      22.60000000      55.00515666      45.00000000      45.02322305       1.50511738
      22.70000000      55.29262272      45.00000000      45.02373455       1.50513448
      22.80000000      55.52272212      45.00000000      45.02416751       1.50514895
      22.90000000      55.81025458      45.00000000      45.02469086       1.50516645
      23.00000000      56.09782433      45.00000000      45.02522077       1.50518416
