 # applied field (T), theta (degree), phi (degree), abs for RE 3-4
     0.00000     0.24392   135.00000     4.68866     0.24392    45.00000     4.68866
     0.10000     0.36681    86.67958     4.68866     0.53451    45.00000     4.68863
     0.20000     0.59977    68.99560     4.68866     0.82530    45.00000     4.68859
     0.30000     0.90066    60.71127     4.68865     1.16420    45.00000     4.68854
     0.40000     1.16685    57.06375     4.68863     1.45548    45.00000     4.68849
     0.50000     1.43607    54.77628     4.68862     1.74702    45.00000     4.68844
     0.60000     1.70693    53.21216     4.68860     2.03884    45.00000     4.68838
     0.70000     2.02361    51.91896     4.68857     2.37903    45.00000     4.68831
     0.80000     2.29630    51.09296     4.68854     2.67151    45.00000     4.68825
     0.90000     2.56950    50.44202     4.68851     2.96434    45.00000     4.68818
     1.00000     2.84311    49.91588     4.68848     3.25751    45.00000     4.68810
     1.10000     3.16219    49.41759     4.68843     3.59939    45.00000     4.68801
     1.20000     3.43655    49.06322     4.68839     3.89341    45.00000     4.68792
     1.30000     3.71123    48.76098     4.68834     4.18784    45.00000     4.68783
     1.40000     4.03146    48.46061     4.68829     4.53125    45.00000     4.68772
     1.50000     4.30680    48.23805     4.68823     4.82664    45.00000     4.68762
     1.60000     4.58245    48.04200     4.68818     5.12251    45.00000     4.68752
     1.70000     4.90383    47.84122     4.68811     5.46767    45.00000     4.68739
     1.80000     5.18017    47.68845     4.68804     5.76463    45.00000     4.68728
     1.90000     5.45685    47.55096     4.68798     6.06212    45.00000     4.68716
     2.00000     5.77947    47.40722     4.68789     6.40924    45.00000     4.68702
     2.10000     6.05692    47.29580     4.68782     6.70794    45.00000     4.68689
     2.20000     6.38046    47.17806     4.68773     7.05652    45.00000     4.68674
     2.30000     6.65874    47.08590     4.68764     7.35651    45.00000     4.68660
     2.40000     6.98328    46.98764     4.68754     7.70665    45.00000     4.68644
     2.50000     7.26245    46.91011     4.68745     8.00801    45.00000     4.68630
     2.60000     7.58807    46.82684     4.68735     8.35979    45.00000     4.68612
     2.70000     7.91431    46.75023     4.68723     8.71249    45.00000     4.68594
     2.80000     8.19497    46.68916     4.68713     9.01612    45.00000     4.68579
     2.90000     8.52241    46.62296     4.68701     9.37061    45.00000     4.68560
     3.00000     8.85053    46.56149     4.68688     9.72608    45.00000     4.68540
     3.10000     9.13286    46.51209     4.68677    10.03216    45.00000     4.68523
     3.20000     9.46230    46.45814     4.68663    10.38955    45.00000     4.68503
     3.30000     9.79248    46.40767     4.68650    10.74801    45.00000     4.68482
     3.40000    10.12344    46.36034     4.68635    11.10755    45.00000     4.68460
     3.50000    10.45519    46.31586     4.68620    11.46821    45.00000     4.68439
     3.60000    10.78775    46.27398     4.68605    11.83000    45.00000     4.68416
     3.70000    11.12116    46.23448     4.68589    12.19294    45.00000     4.68393
     3.80000    11.45542    46.19714     4.68573    12.55706    45.00000     4.68370
     3.90000    11.79058    46.16179     4.68556    12.92238    45.00000     4.68346
     4.00000    12.17419    46.12367     4.68537    13.34080    45.00000     4.68319
     4.10000    12.51132    46.09207     4.68519    13.70874    45.00000     4.68294
     4.20000    12.84940    46.06201     4.68501    14.07794    45.00000     4.68269
     4.30000    13.23645    46.02944     4.68480    14.50086    45.00000     4.68240
     4.40000    13.57666    46.00231     4.68462    14.87281    45.00000     4.68214
     4.50000    13.96619    45.97283     4.68440    15.29892    45.00000     4.68184
     4.60000    14.35710    45.94482     4.68417    15.72675    45.00000     4.68153
     4.70000    14.70077    45.92138     4.68397    16.10306    45.00000     4.68126
     4.80000    15.09433    45.89583     4.68373    16.53420    45.00000     4.68095
     4.90000    15.48936    45.87144     4.68349    16.96712    45.00000     4.68064
     5.00000    15.93508    45.84534     4.68322    17.45581    45.00000     4.68028
     5.10000    16.33331    45.82318     4.68297    17.89259    45.00000     4.67995
     5.20000    16.73311    45.80197     4.68271    18.33121    45.00000     4.67963
     5.30000    17.18429    45.77917     4.68242    18.82634    45.00000     4.67926
     5.40000    17.63752    45.75740     4.68212    19.32383    45.00000     4.67889
     5.50000    18.09283    45.73658     4.68181    19.82367    45.00000     4.67851
     5.60000    18.55026    45.71666     4.68151    20.32589    45.00000     4.67813
     5.70000    19.00985    45.69757     4.68119    20.83048    45.00000     4.67776
     5.80000    19.52264    45.67729     4.68084    21.39346    45.00000     4.67734
     5.90000    20.03819    45.65789     4.68048    21.95937    45.00000     4.67692
     6.00000    20.55652    45.63933     4.68011    22.52819    45.00000     4.67649
     6.10000    21.12958    45.61982     4.67970    23.15685    45.00000     4.67603
     6.20000    21.65391    45.60283     4.67932    23.73176    45.00000     4.67562
     6.30000    22.28618    45.58334     4.67887    24.42459    45.00000     4.67512
     6.40000    22.92269    45.56475     4.67840    25.12150    45.00000     4.67463
     6.50000    90.00000    45.00000     4.66495    88.75781    45.00000     4.67609
     6.60000    90.00000    45.00000     4.66492    88.75798    45.00000     4.67607
     6.70000    90.00000    45.00000     4.66490    88.75814    45.00000     4.67605
     6.80000    90.00000    45.00000     4.66488    88.75830    45.00000     4.67603
     6.90000    90.00000    45.00000     4.66485    88.75846    45.00000     4.67601
     7.00000    90.00000    45.00000     4.66483    88.75863    45.00000     4.67598
     7.10000    90.00000    45.00000     4.66480    88.75879    45.00000     4.67596
     7.20000    90.00000    45.00000     4.66478    88.75895    45.00000     4.67594
     7.30000    90.00000    45.00000     4.66476    88.75911    45.00000     4.67592
     7.40000    90.00000    45.00000     4.66473    88.75928    45.00000     4.67589
     7.50000    90.00000    45.00000     4.66471    88.75944    45.00000     4.67587
     7.60000    90.00000    45.00000     4.66469    88.75960    45.00000     4.67585
     7.70000    90.00000    45.00000     4.66466    88.75976    45.00000     4.67583
     7.80000    90.00000    45.00000     4.66464    88.75992    45.00000     4.67581
     7.90000    90.00000    45.00000     4.66462    88.76009    45.00000     4.67578
     8.00000    90.00000    45.00000     4.66459    88.76025    45.00000     4.67576
     8.10000    90.00000    45.00000     4.66457    88.76041    45.00000     4.67574
     8.20000    90.00000    45.00000     4.66454    88.76057    45.00000     4.67572
     8.30000    90.00000    45.00000     4.66452    88.76073    45.00000     4.67569
     8.40000    90.00000    45.00000     4.66450    88.76090    45.00000     4.67567
     8.50000    90.00000    45.00000     4.66447    88.76106    45.00000     4.67565
     8.60000    90.00000    45.00000     4.66445    88.76122    45.00000     4.67563
     8.70000    90.00000    45.00000     4.66443    88.76138    45.00000     4.67560
     8.80000    90.00000    45.00000     4.66440    88.76154    45.00000     4.67558
     8.90000    90.00000    45.00000     4.66438    88.76170    45.00000     4.67556
     9.00000    90.00000    45.00000     4.66436    88.76187    45.00000     4.67554
     9.10000    90.00000    45.00000     4.66433    88.76203    45.00000     4.67552
     9.20000    90.00000    45.00000     4.66431    88.76219    45.00000     4.67549
     9.30000    90.00000    45.00000     4.66428    88.76235    45.00000     4.67547
     9.40000    90.00000    45.00000     4.66426    88.76251    45.00000     4.67545
     9.50000    90.00000    45.00000     4.66424    88.76267    45.00000     4.67543
     9.60000    90.00000    45.00000     4.66421    88.76283    45.00000     4.67540
     9.70000    90.00000    45.00000     4.66419    88.76299    45.00000     4.67538
     9.80000    90.00000    45.00000     4.66417    88.76316    45.00000     4.67536
     9.90000    90.00000    45.00000     4.66414    88.76332    45.00000     4.67534
    10.00000    90.00000    45.00000     4.66412    88.76348    45.00000     4.67531
    10.10000    90.00000    45.00000     4.66410    88.76364    45.00000     4.67529
    10.20000    90.00000    45.00000     4.66407    88.76380    45.00000     4.67527
    10.30000    90.00000    45.00000     4.66405    88.76396    45.00000     4.67525
    10.40000    90.00000    45.00000     4.66402    88.76412    45.00000     4.67522
    10.50000    90.00000    45.00000     4.66400    88.76428    45.00000     4.67520
    10.60000    90.00000    45.00000     4.66398    88.76444    45.00000     4.67518
    10.70000    90.00000    45.00000     4.66395    88.76460    45.00000     4.67516
    10.80000    90.00000    45.00000     4.66393    88.76476    45.00000     4.67514
    10.90000    90.00000    45.00000     4.66391    88.76492    45.00000     4.67511
    11.00000    90.00000    45.00000     4.66388    88.76508    45.00000     4.67509
    11.10000    90.00000    45.00000     4.66386    88.76524    45.00000     4.67507
    11.20000    90.00000    45.00000     4.66383    88.76540    45.00000     4.67505
    11.30000    90.00000    45.00000     4.66381    88.76557    45.00000     4.67502
    11.40000    90.00000    45.00000     4.66379    88.76573    45.00000     4.67500
    11.50000    90.00000    45.00000     4.66376    88.76589    45.00000     4.67498
    11.60000    90.00000    45.00000     4.66374    88.76605    45.00000     4.67496
    11.70000    90.00000    45.00000     4.66372    88.76621    45.00000     4.67493
    11.80000    90.00000    45.00000     4.66369    88.76637    45.00000     4.67491
    11.90000    90.00000    45.00000     4.66367    88.76653    45.00000     4.67489
    12.00000    90.00000    45.00000     4.66364    88.76669    45.00000     4.67487
    12.10000    90.00000    45.00000     4.66362    88.76685    45.00000     4.67484
    12.20000    90.00000    45.00000     4.66360    88.76701    45.00000     4.67482
    12.30000    90.00000    45.00000     4.66357    88.76716    45.00000     4.67480
    12.40000    90.00000    45.00000     4.66355    88.76732    45.00000     4.67478
    12.50000    90.00000    45.00000     4.66353    88.76748    45.00000     4.67475
    12.60000    90.00000    45.00000     4.66350    88.76764    45.00000     4.67473
    12.70000    90.00000    45.00000     4.66348    88.76780    45.00000     4.67471
    12.80000    90.00000    45.00000     4.66345    88.76796    45.00000     4.67469
    12.90000    90.00000    45.00000     4.66343    88.76812    45.00000     4.67466
    13.00000    90.00000    45.00000     4.66341    88.76828    45.00000     4.67464
    13.10000    90.00000    45.00000     4.66338    88.76844    45.00000     4.67462
    13.20000    90.00000    45.00000     4.66336    88.76860    45.00000     4.67460
    13.30000    90.00000    45.00000     4.66334    88.76876    45.00000     4.67457
    13.40000    90.00000    45.00000     4.66331    88.76892    45.00000     4.67455
    13.50000    90.00000    45.00000     4.66329    88.76908    45.00000     4.67453
    13.60000    90.00000    45.00000     4.66326    88.76924    45.00000     4.67451
    13.70000    90.00000    45.00000     4.66324    88.76940    45.00000     4.67449
    13.80000    90.00000    45.00000     4.66322    88.76956    45.00000     4.67446
    13.90000    90.00000    45.00000     4.66319    88.76971    45.00000     4.67444
    14.00000    90.00000    45.00000     4.66317    88.76987    45.00000     4.67442
    14.10000    90.00000    45.00000     4.66314    88.77003    45.00000     4.67440
    14.20000    90.00000    45.00000     4.66312    88.77019    45.00000     4.67437
    14.30000    90.00000    45.00000     4.66310    88.77035    45.00000     4.67435
    14.40000    90.00000    45.00000     4.66307    88.77051    45.00000     4.67433
    14.50000    90.00000    45.00000     4.66305    88.77067    45.00000     4.67431
    14.60000    90.00000    45.00000     4.66303    88.77083    45.00000     4.67428
    14.70000    90.00000    45.00000     4.66300    88.77098    45.00000     4.67426
    14.80000    90.00000    45.00000     4.66298    88.77114    45.00000     4.67424
    14.90000    90.00000    45.00000     4.66295    88.77130    45.00000     4.67422
    15.00000    90.00000    45.00000     4.66293    88.77146    45.00000     4.67419
    15.10000    90.00000    45.00000     4.66291    88.77162    45.00000     4.67417
    15.20000    90.00000    45.00000     4.66288    88.77178    45.00000     4.67415
    15.30000    90.00000    45.00000     4.66286    88.77193    45.00000     4.67413
    15.40000    90.00000    45.00000     4.66283    88.77209    45.00000     4.67410
    15.50000    90.00000    45.00000     4.66281    88.77225    45.00000     4.67408
    15.60000    90.00000    45.00000     4.66279    88.77241    45.00000     4.67406
    15.70000    90.00000    45.00000     4.66276    88.77257    45.00000     4.67404
    15.80000    90.00000    45.00000     4.66274    88.77272    45.00000     4.67401
    15.90000    90.00000    45.00000     4.66272    88.77288    45.00000     4.67399
    16.00000    90.00000    45.00000     4.66269    88.77304    45.00000     4.67397
    16.10000    90.00000    45.00000     4.66267    88.77320    45.00000     4.67395
    16.20000    90.00000    45.00000     4.66264    88.77336    45.00000     4.67392
    16.30000    90.00000    45.00000     4.66262    88.77351    45.00000     4.67390
    16.40000    90.00000    45.00000     4.66260    88.77367    45.00000     4.67388
    16.50000    90.00000    45.00000     4.66257    88.77383    45.00000     4.67386
    16.60000    90.00000    45.00000     4.66255    88.77399    45.00000     4.67383
    16.70000    90.00000    45.00000     4.66252    88.77414    45.00000     4.67381
    16.80000    90.00000    45.00000     4.66250    88.77430    45.00000     4.67379
    16.90000    90.00000    45.00000     4.66248    88.77446    45.00000     4.67376
    17.00000    90.00000    45.00000     4.66245    88.77462    45.00000     4.67374
    17.10000    90.00000    45.00000     4.66243    88.77477    45.00000     4.67372
    17.20000    90.00000    45.00000     4.66240    88.77493    45.00000     4.67370
    17.30000    90.00000    45.00000     4.66238    88.77509    45.00000     4.67367
    17.40000    90.00000    45.00000     4.66236    88.77525    45.00000     4.67365
    17.50000    90.00000    45.00000     4.66233    88.77540    45.00000     4.67363
    17.60000    90.00000    45.00000     4.66231    88.77556    45.00000     4.67361
    17.70000    90.00000    45.00000     4.66229    88.77572    45.00000     4.67358
    17.80000    90.00000    45.00000     4.66226    88.77587    45.00000     4.67356
    17.90000    90.00000    45.00000     4.66224    88.77603    45.00000     4.67354
    18.00000    90.00000    45.00000     4.66221    88.77619    45.00000     4.67352
    18.10000    90.00000    45.00000     4.66219    88.77634    45.00000     4.67349
    18.20000    90.00000    45.00000     4.66217    88.77650    45.00000     4.67347
    18.30000    90.00000    45.00000     4.66214    88.77666    45.00000     4.67345
    18.40000    90.00000    45.00000     4.66212    88.77681    45.00000     4.67343
    18.50000    90.00000    45.00000     4.66209    88.77697    45.00000     4.67340
    18.60000    90.00000    45.00000     4.66207    88.77713    45.00000     4.67338
    18.70000    90.00000    45.00000     4.66205    88.77728    45.00000     4.67336
    18.80000    90.00000    45.00000     4.66202    88.77744    45.00000     4.67334
    18.90000    90.00000    45.00000     4.66200    88.77760    45.00000     4.67331
    19.00000    90.00000    45.00000     4.66197    88.77775    45.00000     4.67329
    19.10000    90.00000    45.00000     4.66195    88.77791    45.00000     4.67327
    19.20000    90.00000    45.00000     4.66193    88.77807    45.00000     4.67325
    19.30000    90.00000    45.00000     4.66190    88.77822    45.00000     4.67322
    19.40000    90.00000    45.00000     4.66188    88.77838    45.00000     4.67320
    19.50000    90.00000    45.00000     4.66185    88.77854    45.00000     4.67318
    19.60000    90.00000    45.00000     4.66183    88.77869    45.00000     4.67316
    19.70000    90.00000    45.00000     4.66181    88.77885    45.00000     4.67313
    19.80000    90.00000    45.00000     4.66178    88.77900    45.00000     4.67311
    19.90000    90.00000    45.00000     4.66176    88.77916    45.00000     4.67309
    20.00000    90.00000    45.00000     4.66173    88.77932    45.00000     4.67306
    20.10000    90.00000    45.00000     4.66171    88.77947    45.00000     4.67304
    20.20000    90.00000    45.00000     4.66169    88.77963    45.00000     4.67302
    20.30000    90.00000    45.00000     4.66166    88.77978    45.00000     4.67300
    20.40000    90.00000    45.00000     4.66164    88.77994    45.00000     4.67297
    20.50000    90.00000    45.00000     4.66161    88.78009    45.00000     4.67295
    20.60000    90.00000    45.00000     4.66159    88.78025    45.00000     4.67293
    20.70000    90.00000    45.00000     4.66157    88.78041    45.00000     4.67291
    20.80000    90.00000    45.00000     4.66154    88.78056    45.00000     4.67288
    20.90000    90.00000    45.00000     4.66152    88.78072    45.00000     4.67286
    21.00000    90.00000    45.00000     4.66149    88.78087    45.00000     4.67284
    21.10000    90.00000    45.00000     4.66147    88.78103    45.00000     4.67282
    21.20000    90.00000    45.00000     4.66145    88.78118    45.00000     4.67279
    21.30000    90.00000    45.00000     4.66142    88.78134    45.00000     4.67277
    21.40000    90.00000    45.00000     4.66140    88.78149    45.00000     4.67275
    21.50000    90.00000    45.00000     4.66137    88.78165    45.00000     4.67272
    21.60000    90.00000    45.00000     4.66135    88.78180    45.00000     4.67270
    21.70000    90.00000    45.00000     4.66133    88.78196    45.00000     4.67268
    21.80000    90.00000    45.00000     4.66130    88.78211    45.00000     4.67266
    21.90000    90.00000    45.00000     4.66128    88.78227    45.00000     4.67263
    22.00000    90.00000    45.00000     4.66125    88.78242    45.00000     4.67261
    22.10000    90.00000    45.00000     4.66123    88.78258    45.00000     4.67259
    22.20000    90.00000    45.00000     4.66121    88.78273    45.00000     4.67257
    22.30000    90.00000    45.00000     4.66118    88.78289    45.00000     4.67254
    22.40000    90.00000    45.00000     4.66116    88.78304    45.00000     4.67252
    22.50000    90.00000    45.00000     4.66113    88.78320    45.00000     4.67250
    22.60000    90.00000    45.00000     4.66111    88.78335    45.00000     4.67247
    22.70000    90.00000    45.00000     4.66108    88.78351    45.00000     4.67245
    22.80000    90.00000    45.00000     4.66106    88.78366    45.00000     4.67243
    22.90000    90.00000    45.00000     4.66104    88.78382    45.00000     4.67241
    23.00000    90.00000    45.00000     4.66101    88.78397    45.00000     4.67238
    23.10000    90.00000    45.00000     4.66099    88.78412    45.00000     4.67236
    23.20000    90.00000    45.00000     4.66096    88.78428    45.00000     4.67234
    23.30000    90.00000    45.00000     4.66094    88.78443    45.00000     4.67232
