 # applied field (T), theta (degree), phi (degree), abs [muB/unitcell], abs [T]
       0.00000000       0.00000000       0.00000000      48.33101018       1.68301936
       0.10000000       3.21408570     360.00000000      48.33105014       1.68302075
       0.20000000       6.42812854     360.00000000      48.33116541       1.68302477
       0.30000000       9.64208895     360.00000000      48.33134250       1.68303093
       0.40000000      13.31494602     360.00000000      48.33159067       1.68303957
       0.50000000      17.44660809     360.00000000      48.33187600       1.68304951
       0.60000000      90.00000000     360.00000000      48.31414193       1.68243196
       0.70000000      90.00000000     360.00000000      48.31421054       1.68243435
       0.80000000      90.00000000     360.00000000      48.31427917       1.68243674
       0.90000000      90.00000000     360.00000000      48.31434780       1.68243913
       1.00000000      90.00000000     360.00000000      48.31441645       1.68244152
       1.10000000      90.00000000     360.00000000      48.31448511       1.68244391
       1.20000000      90.00000000     360.00000000      48.31455379       1.68244630
       1.30000000      90.00000000     360.00000000      48.31462248       1.68244869
       1.40000000      90.00000000     360.00000000      48.31469118       1.68245109
       1.50000000      90.00000000     360.00000000      48.31475989       1.68245348
       1.60000000      90.00000000     360.00000000      48.31482861       1.68245587
       1.70000000      90.00000000     360.00000000      48.31489735       1.68245827
       1.80000000      90.00000000     360.00000000      48.31496610       1.68246066
       1.90000000      90.00000000     360.00000000      48.31503486       1.68246306
       2.00000000      90.00000000     360.00000000      48.31510364       1.68246545
       2.10000000      90.00000000     360.00000000      48.31517243       1.68246785
       2.20000000      90.00000000     360.00000000      48.31524123       1.68247024
       2.30000000      90.00000000     360.00000000      48.31531004       1.68247264
       2.40000000      90.00000000     360.00000000      48.31537886       1.68247503
       2.50000000      90.00000000     360.00000000      48.31544770       1.68247743
       2.60000000      90.00000000     360.00000000      48.31551655       1.68247983
       2.70000000      90.00000000     360.00000000      48.31558541       1.68248223
       2.80000000      90.00000000     360.00000000      48.31565429       1.68248463
       2.90000000      90.00000000     360.00000000      48.31572318       1.68248702
       3.00000000      90.00000000     360.00000000      48.31579208       1.68248942
       3.10000000      90.00000000     360.00000000      48.31586099       1.68249182
       3.20000000      90.00000000     360.00000000      48.31592992       1.68249422
       3.30000000      90.00000000     360.00000000      48.31599886       1.68249662
       3.40000000      90.00000000     360.00000000      48.31606781       1.68249903
       3.50000000      90.00000000     360.00000000      48.31613677       1.68250143
       3.60000000      90.00000000     360.00000000      48.31620575       1.68250383
       3.70000000      90.00000000     360.00000000      48.31627474       1.68250623
       3.80000000      90.00000000     360.00000000      48.31634374       1.68250863
       3.90000000      90.00000000     360.00000000      48.31641275       1.68251104
       4.00000000      90.00000000     360.00000000      48.31648178       1.68251344
       4.10000000      90.00000000     360.00000000      48.31655082       1.68251585
       4.20000000      90.00000000     360.00000000      48.31661987       1.68251825
       4.30000000      90.00000000     360.00000000      48.31668894       1.68252065
       4.40000000      90.00000000     360.00000000      48.31675801       1.68252306
       4.50000000      90.00000000     360.00000000      48.31682710       1.68252547
       4.60000000      90.00000000     360.00000000      48.31689621       1.68252787
       4.70000000      90.00000000     360.00000000      48.31696532       1.68253028
       4.80000000      90.00000000     360.00000000      48.31703445       1.68253269
       4.90000000      90.00000000     360.00000000      48.31710359       1.68253509
       5.00000000      90.00000000     360.00000000      48.31717274       1.68253750
       5.10000000      90.00000000     360.00000000      48.31724191       1.68253991
       5.20000000      90.00000000     360.00000000      48.31731109       1.68254232
       5.30000000      90.00000000     360.00000000      48.31738028       1.68254473
       5.40000000      90.00000000     360.00000000      48.31744948       1.68254714
       5.50000000      90.00000000     360.00000000      48.31751870       1.68254955
       5.60000000      90.00000000     360.00000000      48.31758793       1.68255196
       5.70000000      90.00000000     360.00000000      48.31765717       1.68255437
       5.80000000      90.00000000     360.00000000      48.31772642       1.68255678
       5.90000000      90.00000000     360.00000000      48.31779569       1.68255919
       6.00000000      90.00000000     360.00000000      48.31786497       1.68256161
       6.10000000      90.00000000     360.00000000      48.31793426       1.68256402
       6.20000000      90.00000000     360.00000000      48.31800357       1.68256643
       6.30000000      90.00000000     360.00000000      48.31807289       1.68256885
       6.40000000      90.00000000     360.00000000      48.31814222       1.68257126
       6.50000000      90.00000000     360.00000000      48.31821156       1.68257368
       6.60000000      90.00000000     360.00000000      48.31828092       1.68257609
       6.70000000      90.00000000     360.00000000      48.31835029       1.68257851
       6.80000000      90.00000000     360.00000000      48.31841967       1.68258092
       6.90000000      90.00000000     360.00000000      48.31848906       1.68258334
       7.00000000      90.00000000     360.00000000      48.31855847       1.68258576
       7.10000000      90.00000000     360.00000000      48.31862789       1.68258817
       7.20000000      90.00000000     360.00000000      48.31869732       1.68259059
       7.30000000      90.00000000     360.00000000      48.31876677       1.68259301
       7.40000000      90.00000000     360.00000000      48.31883622       1.68259543
       7.50000000      90.00000000     360.00000000      48.31890569       1.68259785
       7.60000000      90.00000000     360.00000000      48.31897518       1.68260027
       7.70000000      90.00000000     360.00000000      48.31904467       1.68260269
       7.80000000      90.00000000     360.00000000      48.31911418       1.68260511
       7.90000000      90.00000000     360.00000000      48.31918370       1.68260753
       8.00000000      90.00000000     360.00000000      48.31925324       1.68260995
       8.10000000      90.00000000     360.00000000      48.31932279       1.68261237
       8.20000000      90.00000000     360.00000000      48.31939235       1.68261479
       8.30000000      90.00000000     360.00000000      48.31946192       1.68261722
       8.40000000      90.00000000     360.00000000      48.31953151       1.68261964
       8.50000000      90.00000000     360.00000000      48.31960110       1.68262206
       8.60000000      90.00000000     360.00000000      48.31967071       1.68262449
       8.70000000      90.00000000     360.00000000      48.31974034       1.68262691
       8.80000000      90.00000000     360.00000000      48.31980998       1.68262934
       8.90000000      90.00000000     360.00000000      48.31987962       1.68263176
       9.00000000      90.00000000     360.00000000      48.31994929       1.68263419
       9.10000000      90.00000000     360.00000000      48.32001896       1.68263662
       9.20000000      90.00000000     360.00000000      48.32008865       1.68263904
       9.30000000      90.00000000     360.00000000      48.32015835       1.68264147
       9.40000000      90.00000000     360.00000000      48.32022806       1.68264390
       9.50000000      90.00000000     360.00000000      48.32029779       1.68264632
       9.60000000      90.00000000     360.00000000      48.32036753       1.68264875
       9.70000000      90.00000000     360.00000000      48.32043728       1.68265118
       9.80000000      90.00000000     360.00000000      48.32050705       1.68265361
       9.90000000      90.00000000     360.00000000      48.32057682       1.68265604
      10.00000000      90.00000000     360.00000000      48.32064661       1.68265847
      10.10000000      90.00000000     360.00000000      48.32071642       1.68266090
      10.20000000      90.00000000     360.00000000      48.32078623       1.68266333
      10.30000000      90.00000000     360.00000000      48.32085606       1.68266577
      10.40000000      90.00000000     360.00000000      48.32092590       1.68266820
      10.50000000      90.00000000     360.00000000      48.32099576       1.68267063
      10.60000000      90.00000000     360.00000000      48.32106563       1.68267306
      10.70000000      90.00000000     360.00000000      48.32113551       1.68267550
      10.80000000      90.00000000     360.00000000      48.32120540       1.68267793
      10.90000000      90.00000000     360.00000000      48.32127531       1.68268036
      11.00000000      90.00000000     360.00000000      48.32134523       1.68268280
      11.10000000      90.00000000     360.00000000      48.32141516       1.68268523
      11.20000000      90.00000000     360.00000000      48.32148510       1.68268767
      11.30000000      90.00000000     360.00000000      48.32155506       1.68269011
      11.40000000      90.00000000     360.00000000      48.32162503       1.68269254
      11.50000000      90.00000000     360.00000000      48.32169501       1.68269498
      11.60000000      90.00000000     360.00000000      48.32176501       1.68269742
      11.70000000      90.00000000     360.00000000      48.32183502       1.68269986
      11.80000000      90.00000000     360.00000000      48.32190504       1.68270229
      11.90000000      90.00000000     360.00000000      48.32197508       1.68270473
      12.00000000      90.00000000     360.00000000      48.32204512       1.68270717
      12.10000000      90.00000000     360.00000000      48.32211519       1.68270961
      12.20000000      90.00000000     360.00000000      48.32218526       1.68271205
      12.30000000      90.00000000     360.00000000      48.32225535       1.68271449
      12.40000000      90.00000000     360.00000000      48.32232545       1.68271693
      12.50000000      90.00000000     360.00000000      48.32239556       1.68271938
      12.60000000      90.00000000     360.00000000      48.32246568       1.68272182
      12.70000000      90.00000000     360.00000000      48.32253582       1.68272426
      12.80000000      90.00000000     360.00000000      48.32260597       1.68272670
      12.90000000      90.00000000     360.00000000      48.32267614       1.68272915
      13.00000000      90.00000000     360.00000000      48.32274631       1.68273159
      13.10000000      90.00000000     360.00000000      48.32281650       1.68273403
      13.20000000      90.00000000     360.00000000      48.32288671       1.68273648
      13.30000000      90.00000000     360.00000000      48.32295692       1.68273892
      13.40000000      90.00000000     360.00000000      48.32302715       1.68274137
      13.50000000      90.00000000     360.00000000      48.32309739       1.68274381
      13.60000000      90.00000000     360.00000000      48.32316765       1.68274626
      13.70000000      90.00000000     360.00000000      48.32323792       1.68274871
      13.80000000      90.00000000     360.00000000      48.32330820       1.68275116
      13.90000000      90.00000000     360.00000000      48.32337849       1.68275360
      14.00000000      90.00000000     360.00000000      48.32344880       1.68275605
      14.10000000      90.00000000     360.00000000      48.32351912       1.68275850
      14.20000000      90.00000000     360.00000000      48.32358945       1.68276095
      14.30000000      90.00000000     360.00000000      48.32365980       1.68276340
      14.40000000      90.00000000     360.00000000      48.32373016       1.68276585
      14.50000000      90.00000000     360.00000000      48.32380053       1.68276830
      14.60000000      90.00000000     360.00000000      48.32387091       1.68277075
      14.70000000      90.00000000     360.00000000      48.32394131       1.68277320
      14.80000000      90.00000000     360.00000000      48.32401172       1.68277565
      14.90000000      90.00000000     360.00000000      48.32408214       1.68277811
      15.00000000      90.00000000     360.00000000      48.32415258       1.68278056
      15.10000000      90.00000000     360.00000000      48.32422303       1.68278301
      15.20000000      90.00000000     360.00000000      48.32429349       1.68278547
      15.30000000      90.00000000     360.00000000      48.32436397       1.68278792
      15.40000000      90.00000000     360.00000000      48.32443446       1.68279038
      15.50000000      90.00000000     360.00000000      48.32450496       1.68279283
      15.60000000      90.00000000     360.00000000      48.32457548       1.68279529
      15.70000000      90.00000000     360.00000000      48.32464600       1.68279774
      15.80000000      90.00000000     360.00000000      48.32471654       1.68280020
      15.90000000      90.00000000     360.00000000      48.32478710       1.68280266
      16.00000000      90.00000000     360.00000000      48.32485767       1.68280511
      16.10000000      90.00000000     360.00000000      48.32492825       1.68280757
      16.20000000      90.00000000     360.00000000      48.32499884       1.68281003
      16.30000000      90.00000000     360.00000000      48.32506945       1.68281249
      16.40000000      90.00000000     360.00000000      48.32514007       1.68281495
      16.50000000      90.00000000     360.00000000      48.32521070       1.68281741
      16.60000000      90.00000000     360.00000000      48.32528134       1.68281987
      16.70000000      90.00000000     360.00000000      48.32535200       1.68282233
      16.80000000      90.00000000     360.00000000      48.32542267       1.68282479
      16.90000000      90.00000000     360.00000000      48.32549336       1.68282725
      17.00000000      90.00000000     360.00000000      48.32556406       1.68282971
      17.10000000      90.00000000     360.00000000      48.32563477       1.68283217
      17.20000000      90.00000000     360.00000000      48.32570549       1.68283464
      17.30000000      90.00000000     360.00000000      48.32577623       1.68283710
      17.40000000      90.00000000     360.00000000      48.32584698       1.68283956
      17.50000000      90.00000000     360.00000000      48.32591774       1.68284203
      17.60000000      90.00000000     360.00000000      48.32598852       1.68284449
      17.70000000      90.00000000     360.00000000      48.32605931       1.68284696
      17.80000000      90.00000000     360.00000000      48.32613011       1.68284942
      17.90000000      90.00000000     360.00000000      48.32620093       1.68285189
      18.00000000      90.00000000     360.00000000      48.32627176       1.68285435
      18.10000000      90.00000000     360.00000000      48.32634260       1.68285682
      18.20000000      90.00000000     360.00000000      48.32641345       1.68285929
      18.30000000      90.00000000     360.00000000      48.32648432       1.68286176
      18.40000000      90.00000000     360.00000000      48.32655520       1.68286423
      18.50000000      90.00000000     360.00000000      48.32662610       1.68286669
      18.60000000      90.00000000     360.00000000      48.32669700       1.68286916
      18.70000000      90.00000000     360.00000000      48.32676793       1.68287163
      18.80000000      90.00000000     360.00000000      48.32683886       1.68287410
      18.90000000      90.00000000     360.00000000      48.32690981       1.68287657
      19.00000000      90.00000000     360.00000000      48.32698077       1.68287904
      19.10000000      90.00000000     360.00000000      48.32705174       1.68288152
      19.20000000      90.00000000     360.00000000      48.32712273       1.68288399
      19.30000000      90.00000000     360.00000000      48.32719373       1.68288646
      19.40000000      90.00000000     360.00000000      48.32726474       1.68288893
      19.50000000      90.00000000     360.00000000      48.32733577       1.68289141
      19.60000000      90.00000000     360.00000000      48.32740681       1.68289388
      19.70000000      90.00000000     360.00000000      48.32747786       1.68289635
      19.80000000      90.00000000     360.00000000      48.32754893       1.68289883
      19.90000000      90.00000000     360.00000000      48.32762000       1.68290130
      20.00000000      90.00000000     360.00000000      48.32769110       1.68290378
      20.10000000      90.00000000     360.00000000      48.32776220       1.68290626
      20.20000000      90.00000000     360.00000000      48.32783332       1.68290873
      20.30000000      90.00000000     360.00000000      48.32790445       1.68291121
      20.40000000      90.00000000     360.00000000      48.32797560       1.68291369
      20.50000000      90.00000000     360.00000000      48.32804676       1.68291617
      20.60000000      90.00000000     360.00000000      48.32811793       1.68291864
      20.70000000      90.00000000     360.00000000      48.32818911       1.68292112
      20.80000000      90.00000000     360.00000000      48.32826031       1.68292360
      20.90000000      90.00000000     360.00000000      48.32833152       1.68292608
      21.00000000      90.00000000     360.00000000      48.32840275       1.68292856
      21.10000000      90.00000000     360.00000000      48.32847398       1.68293104
      21.20000000      90.00000000     360.00000000      48.32854523       1.68293352
      21.30000000      90.00000000     360.00000000      48.32861650       1.68293601
      21.40000000      90.00000000     360.00000000      48.32868778       1.68293849
      21.50000000      90.00000000     360.00000000      48.32875907       1.68294097
      21.60000000      90.00000000     360.00000000      48.32883037       1.68294345
      21.70000000      90.00000000     360.00000000      48.32890169       1.68294594
      21.80000000      90.00000000     360.00000000      48.32897302       1.68294842
      21.90000000      90.00000000     360.00000000      48.32904436       1.68295090
      22.00000000      90.00000000     360.00000000      48.32911572       1.68295339
      22.10000000      90.00000000     360.00000000      48.32918709       1.68295587
      22.20000000      90.00000000     360.00000000      48.32925847       1.68295836
      22.30000000      90.00000000     360.00000000      48.32932987       1.68296085
      22.40000000      90.00000000     360.00000000      48.32940128       1.68296333
      22.50000000      90.00000000     360.00000000      48.32947270       1.68296582
      22.60000000      90.00000000     360.00000000      48.32954414       1.68296831
      22.70000000      90.00000000     360.00000000      48.32961559       1.68297080
      22.80000000      90.00000000     360.00000000      48.32968705       1.68297329
      22.90000000      90.00000000     360.00000000      48.32975853       1.68297577
      23.00000000      90.00000000     360.00000000      48.32983002       1.68297826
