 # applied field (T), theta (degree), phi (degree), abs for RE 3-4
     0.00000   180.00000   180.00000     4.43937   180.00000   180.00000     4.43937
     0.10000   179.84034   180.00000     4.43937   179.80466   180.00000     4.43937
     0.20000   179.68067   180.00000     4.43936   179.60931   180.00000     4.43936
     0.30000   179.52100   180.00000     4.43935   179.41397   180.00000     4.43936
     0.40000   179.36133   180.00000     4.43934   179.21862   180.00000     4.43935
     0.50000   179.20164   180.00000     4.43933   179.02326   180.00000     4.43934
     0.60000   179.04193   180.00000     4.43931   178.82790   180.00000     4.43933
     0.70000   178.88221   180.00000     4.43929   178.63253   180.00000     4.43932
     0.80000   178.72247   180.00000     4.43926   178.43715   180.00000     4.43931
     0.90000   178.56270   180.00000     4.43923   178.24175   180.00000     4.43929
     1.00000   178.36283   180.00000     4.43919   177.99753   180.00000     4.43927
     1.10000   178.20300   180.00000     4.43916   177.80211   180.00000     4.43925
     1.20000   178.04314   180.00000     4.43912   177.60667   180.00000     4.43923
     1.30000   177.88324   180.00000     4.43908   177.41121   180.00000     4.43920
     1.40000   177.72330   180.00000     4.43903   177.21573   180.00000     4.43918
     1.50000   177.56333   180.00000     4.43898   177.02024   180.00000     4.43915
     1.60000   177.40330   180.00000     4.43893   176.82472   180.00000     4.43912
     1.70000   177.24323   180.00000     4.43887   176.62918   180.00000     4.43909
     1.80000   177.08311   180.00000     4.43882   176.43361   180.00000     4.43906
     1.90000   176.92294   180.00000     4.43875   176.23802   180.00000     4.43902
     2.00000   176.76271   180.00000     4.43869   176.04241   180.00000     4.43899
     2.10000   176.60242   180.00000     4.43862   175.84676   180.00000     4.43895
     2.20000   176.44207   180.00000     4.43855   175.65108   180.00000     4.43891
     2.30000   176.28165   180.00000     4.43847   175.45538   180.00000     4.43887
     2.40000   176.12116   180.00000     4.43839   175.25964   180.00000     4.43882
     2.50000   175.96061   180.00000     4.43831   175.06386   180.00000     4.43878
     2.60000   175.79998   180.00000     4.43823   174.86805   180.00000     4.43873
     2.70000   175.63927   180.00000     4.43814   174.67221   180.00000     4.43868
     2.80000   175.47848   180.00000     4.43805   174.47632   180.00000     4.43863
     2.90000   175.27726   180.00000     4.43793   174.23145   180.00000     4.43856
     3.00000   175.11628   180.00000     4.43783   174.03548   180.00000     4.43851
     3.10000   174.95521   180.00000     4.43773   173.83946   180.00000     4.43845
     3.20000   174.79404   180.00000     4.43762   173.64340   180.00000     4.43839
     3.30000   174.63278   180.00000     4.43751   173.44729   180.00000     4.43833
     3.40000   174.47142   180.00000     4.43740   173.25114   180.00000     4.43827
     3.50000   174.30996   180.00000     4.43728   173.05494   180.00000     4.43821
     3.60000   174.14839   180.00000     4.43716   172.85869   180.00000     4.43814
     3.70000   173.98672   180.00000     4.43704   172.66239   180.00000     4.43807
     3.80000   173.82493   180.00000     4.43691   172.46604   180.00000     4.43800
     3.90000   173.66302   180.00000     4.43678   172.26963   180.00000     4.43793
     4.00000   173.50100   180.00000     4.43665   172.07318   180.00000     4.43786
     4.10000   173.33886   180.00000     4.43652   171.87666   180.00000     4.43779
     4.20000   173.17659   180.00000     4.43638   171.68009   180.00000     4.43771
     4.30000   173.01420   180.00000     4.43623   171.48346   180.00000     4.43763
     4.40000   172.85167   180.00000     4.43609   171.28678   180.00000     4.43755
     4.50000   172.68901   180.00000     4.43594   171.09003   180.00000     4.43747
     4.60000   172.52621   180.00000     4.43579   170.89322   180.00000     4.43739
     4.70000   172.36328   180.00000     4.43563   170.69634   180.00000     4.43731
     4.80000   172.15930   180.00000     4.43543   170.45020   180.00000     4.43720
     4.90000   171.99603   180.00000     4.43527   170.25319   180.00000     4.43711
     5.00000   171.83262   180.00000     4.43510   170.05610   180.00000     4.43702
     5.10000   171.66904   180.00000     4.43493   169.85895   180.00000     4.43693
     5.20000   171.50532   180.00000     4.43476   169.66172   180.00000     4.43684
     5.30000   171.34143   180.00000     4.43458   169.46443   180.00000     4.43674
     5.40000   171.17737   180.00000     4.43441   169.26706   180.00000     4.43665
     5.50000   171.01315   180.00000     4.43422   169.06963   180.00000     4.43655
     5.60000   170.84876   180.00000     4.43404   168.87211   180.00000     4.43645
     5.70000   170.68419   180.00000     4.43385   168.67453   180.00000     4.43635
     5.80000   170.51944   180.00000     4.43365   168.47686   180.00000     4.43625
     5.90000   170.35452   180.00000     4.43346   168.27912   180.00000     4.43614
     6.00000   170.18940   180.00000     4.43326   168.08130   180.00000     4.43604
     6.10000   170.02410   180.00000     4.43305   167.88340   180.00000     4.43593
     6.20000   169.85861   180.00000     4.43285   167.68542   180.00000     4.43582
     6.30000   169.69292   180.00000     4.43264   167.48736   180.00000     4.43571
     6.40000   169.52703   180.00000     4.43242   167.28922   180.00000     4.43560
     6.50000   169.36094   180.00000     4.43221   167.09099   180.00000     4.43549
     6.60000   169.19465   180.00000     4.43199   166.89268   180.00000     4.43537
     6.70000   169.02814   180.00000     4.43177   166.69428   180.00000     4.43526
     6.80000   168.81962   180.00000     4.43148   166.44621   180.00000     4.43511
     6.90000   168.65263   180.00000     4.43125   166.24761   180.00000     4.43499
     7.00000   168.48542   180.00000     4.43102   166.04892   180.00000     4.43487
     7.10000   168.31798   180.00000     4.43078   165.85015   180.00000     4.43475
     7.20000   168.15032   180.00000     4.43054   165.65128   180.00000     4.43463
     7.30000   167.98242   180.00000     4.43030   165.45232   180.00000     4.43450
     7.40000   167.81428   180.00000     4.43005   165.25327   180.00000     4.43438
     7.50000   167.64591   180.00000     4.42980   165.05412   180.00000     4.43425
     7.60000   167.47729   180.00000     4.42955   164.85488   180.00000     4.43412
     7.70000   167.30842   180.00000     4.42929   164.65554   180.00000     4.43399
     7.80000   167.13930   180.00000     4.42903   164.45610   180.00000     4.43386
     7.90000   166.96993   180.00000     4.42877   164.25657   180.00000     4.43372
     8.00000   166.80029   180.00000     4.42850   164.05694   180.00000     4.43359
     8.10000   166.63040   180.00000     4.42823   163.85720   180.00000     4.43345
     8.20000   166.46023   180.00000     4.42796   163.65737   180.00000     4.43332
     8.30000   166.28979   180.00000     4.42768   163.45743   180.00000     4.43318
     8.40000   166.11908   180.00000     4.42740   163.25739   180.00000     4.43304
     8.50000   165.94809   180.00000     4.42712   163.05725   180.00000     4.43290
     8.60000   165.77682   180.00000     4.42683   162.85700   180.00000     4.43276
     8.70000   165.56226   180.00000     4.42647   162.60661   180.00000     4.43258
     8.80000   165.39034   180.00000     4.42618   162.40612   180.00000     4.43244
     8.90000   165.21812   180.00000     4.42588   162.20553   180.00000     4.43229
     9.00000   165.04559   180.00000     4.42558   162.00483   180.00000     4.43214
     9.10000   164.87276   180.00000     4.42528   161.80402   180.00000     4.43199
     9.20000   164.69963   180.00000     4.42497   161.60311   180.00000     4.43184
     9.30000   164.52618   180.00000     4.42466   161.40208   180.00000     4.43169
     9.40000   164.35241   180.00000     4.42435   161.20094   180.00000     4.43154
     9.50000   164.17832   180.00000     4.42403   160.99969   180.00000     4.43139
     9.60000   164.00390   180.00000     4.42371   160.79832   180.00000     4.43123
     9.70000   163.82915   180.00000     4.42339   160.59684   180.00000     4.43108
     9.80000   163.65407   180.00000     4.42306   160.39525   180.00000     4.43092
     9.90000   163.47864   180.00000     4.42273   160.19355   180.00000     4.43076
    10.00000   163.30288   180.00000     4.42240   159.99172   180.00000     4.43061
    10.10000   163.12676   180.00000     4.42206   159.78978   180.00000     4.43045
    10.20000   162.95029   180.00000     4.42173   159.58773   180.00000     4.43028
    10.30000   162.77346   180.00000     4.42138   159.38555   180.00000     4.43012
    10.40000   162.55190   180.00000     4.42095   159.13273   180.00000     4.42992
    10.50000   162.37426   180.00000     4.42061   158.93029   180.00000     4.42976
    10.60000   162.19624   180.00000     4.42025   158.72773   180.00000     4.42959
    10.70000   162.01784   180.00000     4.41990   158.52504   180.00000     4.42943
    10.80000   161.83907   180.00000     4.41954   158.32223   180.00000     4.42926
    10.90000   161.65991   180.00000     4.41918   158.11931   180.00000     4.42909
    11.00000   161.48035   180.00000     4.41881   157.91625   180.00000     4.42892
    11.10000   161.30040   180.00000     4.41844   157.71308   180.00000     4.42875
    11.20000   161.12005   180.00000     4.41807   157.50978   180.00000     4.42858
    11.30000   160.93930   180.00000     4.41770   157.30635   180.00000     4.42841
    11.40000   160.75813   180.00000     4.41732   157.10280   180.00000     4.42823
    11.50000   160.57655   180.00000     4.41694   156.89912   180.00000     4.42806
    11.60000   160.39455   180.00000     4.41655   156.69532   180.00000     4.42788
    11.70000   160.21213   180.00000     4.41617   156.49139   180.00000     4.42771
    11.80000   159.98350   180.00000     4.41568   156.23636   180.00000     4.42749
    11.90000   159.80010   180.00000     4.41529   156.03214   180.00000     4.42731
    12.00000   159.61626   180.00000     4.41489   155.82779   180.00000     4.42713
    12.10000   159.43198   180.00000     4.41449   155.62331   180.00000     4.42695
    12.20000   159.24724   180.00000     4.41409   155.41869   180.00000     4.42677
    12.30000   159.06205   180.00000     4.41369   155.21395   180.00000     4.42659
    12.40000   158.87640   180.00000     4.41328   155.00907   180.00000     4.42640
    12.50000   158.69028   180.00000     4.41287   154.80405   180.00000     4.42622
    12.60000   158.50369   180.00000     4.41245   154.59891   180.00000     4.42604
    12.70000   158.31662   180.00000     4.41203   154.39363   180.00000     4.42585
    12.80000   158.12907   180.00000     4.41161   154.18821   180.00000     4.42566
    12.90000   157.89398   180.00000     4.41109   153.93133   180.00000     4.42543
    13.00000   157.70533   180.00000     4.41066   153.72561   180.00000     4.42525
    13.10000   157.51618   180.00000     4.41023   153.51975   180.00000     4.42506
    13.20000   157.32652   180.00000     4.40980   153.31376   180.00000     4.42487
    13.30000   157.13636   180.00000     4.40937   153.10762   180.00000     4.42467
    13.40000   156.94568   180.00000     4.40893   152.90135   180.00000     4.42448
    13.50000   156.75448   180.00000     4.40849   152.69493   180.00000     4.42429
    13.60000   156.56275   180.00000     4.40804   152.48838   180.00000     4.42410
    13.70000   156.37050   180.00000     4.40760   152.28168   180.00000     4.42390
    13.80000   156.12949   180.00000     4.40704   152.02320   180.00000     4.42366
    13.90000   155.93602   180.00000     4.40659   151.81619   180.00000     4.42347
    14.00000   155.74200   180.00000     4.40613   151.60903   180.00000     4.42327
    14.10000   155.54743   180.00000     4.40568   151.40172   180.00000     4.42307
    14.20000   155.35230   180.00000     4.40522   151.19428   180.00000     4.42287
    14.30000   155.15660   180.00000     4.40476   150.98668   180.00000     4.42268
    14.40000   154.96033   180.00000     4.40429   150.77894   180.00000     4.42248
    14.50000   154.71427   180.00000     4.40371   150.51915   180.00000     4.42223
    14.60000   154.51670   180.00000     4.40324   150.31108   180.00000     4.42203
    14.70000   154.31855   180.00000     4.40277   150.10286   180.00000     4.42182
    14.80000   154.11980   180.00000     4.40229   149.89449   180.00000     4.42162
    14.90000   153.92045   180.00000     4.40182   149.68597   180.00000     4.42142
    15.00000   153.72049   180.00000     4.40134   149.47730   180.00000     4.42121
    15.10000   153.46980   180.00000     4.40074   149.21635   180.00000     4.42096
    15.20000   153.26846   180.00000     4.40025   149.00733   180.00000     4.42075
    15.30000   153.06651   180.00000     4.39977   148.79817   180.00000     4.42054
    15.40000   152.86392   180.00000     4.39928   148.58885   180.00000     4.42034
    15.50000   152.66071   180.00000     4.39879   148.37937   180.00000     4.42013
    15.60000   152.40591   180.00000     4.39818   148.11741   180.00000     4.41987
    15.70000   152.20125   180.00000     4.39768   147.90758   180.00000     4.41966
    15.80000   151.99594   180.00000     4.39718   147.69759   180.00000     4.41945
    15.90000   151.78997   180.00000     4.39668   147.48745   180.00000     4.41923
    16.00000   151.53171   180.00000     4.39606   147.22464   180.00000     4.41897
    16.10000   151.32425   180.00000     4.39556   147.01414   180.00000     4.41876
    16.20000   151.11611   180.00000     4.39505   146.80347   180.00000     4.41854
    16.30000   150.90730   180.00000     4.39454   146.59264   180.00000     4.41832
    16.40000   150.64546   180.00000     4.39391   146.32897   180.00000     4.41806
    16.50000   150.43510   180.00000     4.39340   146.11777   180.00000     4.41784
    16.60000   150.22404   180.00000     4.39289   145.90640   180.00000     4.41762
    16.70000   149.95939   180.00000     4.39226   145.64206   180.00000     4.41735
    16.80000   149.74675   180.00000     4.39174   145.43031   180.00000     4.41713
    16.90000   149.53340   180.00000     4.39122   145.21840   180.00000     4.41691
    17.00000   149.31933   180.00000     4.39070   145.00631   180.00000     4.41669
    17.10000   149.05090   180.00000     4.39006   144.74107   180.00000     4.41641
    17.20000   148.83520   180.00000     4.38954   144.52859   180.00000     4.41619
    17.30000   148.61877   180.00000     4.38902   144.31594   180.00000     4.41596
    17.40000   148.34736   180.00000     4.38837   144.04998   180.00000     4.41568
    17.50000   148.12927   180.00000     4.38785   143.83693   180.00000     4.41546
    17.60000   147.85578   180.00000     4.38720   143.57048   180.00000     4.41517
    17.70000   147.63599   180.00000     4.38667   143.35703   180.00000     4.41494
    17.80000   147.41544   180.00000     4.38614   143.14339   180.00000     4.41471
    17.90000   147.13889   180.00000     4.38549   142.87619   180.00000     4.41443
    18.00000   146.91662   180.00000     4.38496   142.66214   180.00000     4.41420
    18.10000   146.63790   180.00000     4.38431   142.39443   180.00000     4.41391
    18.20000   146.41390   180.00000     4.38378   142.17995   180.00000     4.41367
    18.30000   146.13300   180.00000     4.38312   141.91170   180.00000     4.41339
    18.40000   145.90723   180.00000     4.38259   141.69680   180.00000     4.41315
    18.50000   145.62413   180.00000     4.38194   141.42801   180.00000     4.41286
    18.60000   145.39658   180.00000     4.38141   141.21266   180.00000     4.41262
    18.70000   145.11125   180.00000     4.38075   140.94332   180.00000     4.41232
    18.80000   144.88191   180.00000     4.38022   140.72753   180.00000     4.41208
    18.90000   144.59433   180.00000     4.37957   140.45763   180.00000     4.41178
    19.00000   144.30549   180.00000     4.37892   140.18740   180.00000     4.41148
    19.10000   144.07333   180.00000     4.37839   139.97090   180.00000     4.41123
    19.20000   143.78221   180.00000     4.37774   139.70009   180.00000     4.41093
    19.30000   143.54821   180.00000     4.37721   139.48311   180.00000     4.41068
    19.40000   143.25481   180.00000     4.37656   139.21172   180.00000     4.41037
    19.50000   142.96013   180.00000     4.37591   138.93998   180.00000     4.41007
    19.60000   142.72325   180.00000     4.37539   138.72225   180.00000     4.40981
    19.70000   142.42626   180.00000     4.37474   138.44991   180.00000     4.40950
    19.80000   142.12797   180.00000     4.37410   138.17721   180.00000     4.40919
    19.90000   141.82840   180.00000     4.37346   137.90417   180.00000     4.40887
    20.00000   141.52753   180.00000     4.37282   137.63076   180.00000     4.40856
    20.10000   141.28569   180.00000     4.37230   137.41168   180.00000     4.40829
    20.20000   140.98250   180.00000     4.37167   137.13763   180.00000     4.40797
    20.30000   140.67800   180.00000     4.37104   136.86320   180.00000     4.40765
    20.40000   140.37221   180.00000     4.37041   136.58841   180.00000     4.40733
    20.50000   140.06513   180.00000     4.36978   136.31323   180.00000     4.40700
    20.60000   139.75675   180.00000     4.36916   136.03768   180.00000     4.40667
    20.70000   139.44708   180.00000     4.36855   135.76173   180.00000     4.40634
    20.80000   139.13612   180.00000     4.36793   135.48539   180.00000     4.40600
    20.90000   138.82387   180.00000     4.36733   135.20865   180.00000     4.40567
    21.00000   138.51033   180.00000     4.36672   134.93150   180.00000     4.40533
    21.10000   138.19552   180.00000     4.36612   134.65394   180.00000     4.40499
    21.20000   137.81629   180.00000     4.36542   134.32044   180.00000     4.40458
    21.30000   137.49867   180.00000     4.36483   134.04196   180.00000     4.40423
    21.40000   137.17978   180.00000     4.36424   133.76305   180.00000     4.40389
    21.50000   136.85964   180.00000     4.36367   133.48371   180.00000     4.40354
    21.60000   136.47406   180.00000     4.36299   133.14802   180.00000     4.40312
    21.70000   136.15117   180.00000     4.36242   132.86770   180.00000     4.40276
    21.80000   135.82704   180.00000     4.36187   132.58692   180.00000     4.40240
    21.90000   135.43672   180.00000     4.36121   132.24949   180.00000     4.40197
    22.00000   135.10991   180.00000     4.36067   131.96768   180.00000     4.40161
    22.10000   134.71640   180.00000     4.36003   131.62900   180.00000     4.40117
    22.20000   134.32118   180.00000     4.35940   131.28963   180.00000     4.40073
    22.30000   133.99032   180.00000     4.35889   131.00617   180.00000     4.40036
    22.40000   133.59201   180.00000     4.35828   130.66548   180.00000     4.39991
    22.50000   133.19205   180.00000     4.35768   130.32406   180.00000     4.39946
    22.60000   132.79046   180.00000     4.35710   129.98189   180.00000     4.39901
    22.70000   132.38727   180.00000     4.35653   129.63896   180.00000     4.39855
    22.80000   131.98250   180.00000     4.35597   129.29525   180.00000     4.39809
    22.90000   131.57618   180.00000     4.35542   128.95076   180.00000     4.39762
    23.00000   131.16834   180.00000     4.35489   128.60547   180.00000     4.39715
    23.10000   130.75902   180.00000     4.35437   128.25937   180.00000     4.39667
    23.20000   130.34823   180.00000     4.35386   127.91244   180.00000     4.39619
    23.30000   129.86740   180.00000     4.35329   127.50672   180.00000     4.39563
