 # applied field (T), theta (degree), phi (degree), abs for RE 3-4
     0.00000     9.06328   135.00000     0.30129     9.06328    45.00000     0.30129
     0.10000     8.93192   134.57000     0.30139     9.19434    44.58523     0.30120
     0.20000     8.81380   134.15312     0.30148     9.31189    44.20851     0.30113
     0.30000     8.68183   133.69061     0.30160     9.44256    43.81968     0.30105
     0.40000     8.54945   133.20899     0.30172     9.57308    43.44293     0.30098
     0.50000     8.41664   132.70672     0.30185     9.70351    43.07731     0.30092
     0.60000     8.29738   132.21993     0.30197     9.82083    42.74216     0.30087
     0.70000     8.16378   131.67384     0.30212     9.95127    42.39548     0.30082
     0.80000     8.02970   131.10196     0.30227    10.08179    42.05751     0.30078
     0.90000     7.89516   130.50222     0.30243    10.21247    41.72753     0.30075
     1.00000     7.77465   129.92176     0.30257    10.33033    41.42281     0.30074
     1.10000     7.63935   129.26311     0.30274    10.46150    41.10640     0.30072
     1.20000     7.50365   128.56972     0.30292    10.59302    40.79612     0.30071
     1.30000     7.36759   127.83880     0.30311    10.72497    40.49142     0.30071
     1.40000     7.23124   127.06736     0.30330    10.85743    40.19176     0.30072
     1.50000     7.10977   126.32273     0.30347    10.97722    39.91333     0.30074
     1.60000     6.97320   125.46579     0.30368    11.11084    39.62225     0.30076
     1.70000     6.83662   124.55831     0.30389    11.24518    39.33490     0.30079
     1.80000     6.70016   123.59626     0.30411    11.38032    39.05088     0.30083
     1.90000     6.56400   122.57529     0.30433    11.51635    38.76983     0.30088
     2.00000     6.42832   121.49075     0.30456    11.65334    38.49140     0.30093
     2.10000     6.29336   120.33766     0.30479    11.79137    38.21528     0.30100
     2.20000     6.15936   119.11069     0.30503    11.93052    37.94119     0.30107
     2.30000     6.02664   117.80421     0.30528    12.07089    37.66884     0.30115
     2.40000     5.89554   116.41224     0.30553    12.21254    37.39800     0.30123
     2.50000     5.76645   114.92857     0.30579    12.35555    37.12844     0.30133
     2.60000     5.63981   113.34674     0.30605    12.50002    36.85996     0.30143
     2.70000     5.51615   111.66017     0.30631    12.64601    36.59238     0.30153
     2.80000     5.39602   109.86227     0.30658    12.79362    36.32553     0.30165
     2.90000     5.28006   107.94659     0.30685    12.94292    36.05926     0.30177
     3.00000     5.15554   105.68423     0.30717    13.10964    35.77438     0.30192
     3.10000     5.05074   103.49889     0.30745    13.26282    35.50857     0.30205
     3.20000     4.95257   101.17920     0.30773    13.41794    35.24298     0.30219
     3.30000     4.85077    98.44576     0.30807    13.59158    34.95738     0.30237
     3.40000     4.76973    95.83263     0.30835    13.75111    34.69166     0.30252
     3.50000     4.69847    93.08268     0.30865    13.91283    34.42594     0.30268
     3.60000     4.63036    89.86874     0.30899    14.09427    34.13891     0.30288
     3.70000     4.58339    86.84586     0.30928    14.26091    33.87275     0.30305
     3.80000     4.54513    83.34664     0.30963    14.44816    33.58445     0.30326
     3.90000     4.52482    79.72440     0.30998    14.63865    33.29528     0.30347
     4.00000     4.52442    76.39713     0.31027    14.81350    33.02818     0.30366
     4.10000     4.54188    72.62335     0.31062    15.01039    32.73777     0.30389
     4.20000     4.58085    68.81750     0.31097    15.21083    32.44659     0.30412
     4.30000     4.64210    65.01650     0.31133    15.41493    32.15469     0.30436
     4.40000     4.72608    61.25700     0.31168    15.62278    31.86216     0.30461
     4.50000     4.83299    57.57335     0.31203    15.83449    31.56907     0.30486
     4.60000     4.97679    53.61564     0.31243    16.07192    31.25033     0.30514
     4.70000     5.13147    50.18305     0.31277    16.29211    30.95608     0.30541
     4.80000     5.30803    46.90316     0.31312    16.51644    30.66159     0.30567
     4.90000     5.52739    43.45605     0.31351    16.76839    30.34082     0.30598
     5.00000     5.77194    40.21918     0.31390    17.02579    30.01946     0.30629
     5.10000     6.01393    37.48940     0.31424    17.26411    29.72448     0.30657
     5.20000     6.30311    34.65823     0.31462    17.53211    29.40280     0.30688
     5.30000     6.61417    32.03282     0.31500    17.80586    29.08111     0.30721
     5.40000     6.97937    29.36792     0.31542    18.11203    28.73213     0.30757
     5.50000     7.33307    27.14194     0.31579    18.39824    28.41086     0.30790
     5.60000     7.74311    24.88709     0.31620    18.71847    28.06238     0.30827
     5.70000     8.17508    22.82315     0.31659    19.04626    27.71449     0.30864
     5.80000     8.62799    20.93394     0.31698    19.38171    27.36748     0.30902
     5.90000     9.10099    19.20389     0.31736    19.72489    27.02167     0.30940
     6.00000     9.63896    17.47594     0.31778    20.10706    26.64904     0.30982
     6.10000    10.19939    15.90245     0.31818    20.49879    26.27813     0.31023
     6.20000    10.78152    14.46761     0.31856    20.90014    25.90934     0.31065
     6.30000    11.43630    13.04875     0.31897    21.34509    25.51475     0.31111
     6.40000    12.11535    11.75993     0.31936    21.80163    25.12317     0.31156
     6.50000    12.81801    10.58687     0.31974    22.26980    24.73506     0.31201
     6.60000    13.65906     9.35343     0.32016    22.82354    24.29503     0.31254
     6.70000    14.53061     8.24110     0.32056    23.39315    23.86016     0.31306
     6.80000    15.43186     7.23526     0.32093    23.97857    23.43106     0.31357
     6.90000    16.49070     6.20264     0.32132    24.66079    22.95417     0.31415
     7.00000    17.65314     5.22152     0.32171    25.40532    22.45902     0.31475
     7.10000    96.89898   351.09948     0.32273    83.10102     8.90052     0.32273
     7.20000    96.89677   351.10232     0.32275    83.10323     8.89768     0.32275
     7.30000    96.89457   351.10517     0.32277    83.10543     8.89483     0.32277
     7.40000    96.89237   351.10801     0.32279    83.10763     8.89199     0.32279
     7.50000    96.89016   351.11086     0.32281    83.10984     8.88914     0.32281
     7.60000    96.88796   351.11370     0.32283    83.11204     8.88630     0.32283
     7.70000    96.88576   351.11654     0.32285    83.11424     8.88346     0.32285
     7.80000    96.88356   351.11938     0.32287    83.11644     8.88062     0.32287
     7.90000    96.88136   351.12222     0.32289    83.11864     8.87778     0.32289
     8.00000    96.87916   351.12506     0.32290    83.12084     8.87494     0.32290
     8.10000    96.87696   351.12790     0.32292    83.12304     8.87210     0.32292
     8.20000    96.87476   351.13073     0.32294    83.12524     8.86927     0.32294
     8.30000    96.87256   351.13357     0.32296    83.12744     8.86643     0.32296
     8.40000    96.87037   351.13641     0.32298    83.12963     8.86359     0.32298
     8.50000    96.86817   351.13924     0.32300    83.13183     8.86076     0.32300
     8.60000    96.86597   351.14207     0.32302    83.13403     8.85793     0.32302
     8.70000    96.86378   351.14491     0.32304    83.13622     8.85509     0.32304
     8.80000    96.86158   351.14774     0.32306    83.13842     8.85226     0.32306
     8.90000    96.85939   351.15057     0.32308    83.14061     8.84943     0.32308
     9.00000    96.85720   351.15340     0.32310    83.14280     8.84660     0.32310
     9.10000    96.85500   351.15623     0.32312    83.14500     8.84377     0.32312
     9.20000    96.85281   351.15906     0.32314    83.14719     8.84094     0.32314
     9.30000    96.85062   351.16189     0.32316    83.14938     8.83811     0.32316
     9.40000    96.84843   351.16471     0.32318    83.15157     8.83529     0.32318
     9.50000    96.84624   351.16754     0.32320    83.15376     8.83246     0.32320
     9.60000    96.84405   351.17036     0.32322    83.15595     8.82964     0.32322
     9.70000    96.84187   351.17319     0.32324    83.15813     8.82681     0.32324
     9.80000    96.83968   351.17601     0.32326    83.16032     8.82399     0.32326
     9.90000    96.83749   351.17883     0.32327    83.16251     8.82117     0.32327
    10.00000    96.83530   351.18165     0.32329    83.16470     8.81835     0.32329
    10.10000    96.83312   351.18448     0.32331    83.16688     8.81552     0.32331
    10.20000    96.83093   351.18730     0.32333    83.16907     8.81270     0.32333
    10.30000    96.82875   351.19011     0.32335    83.17125     8.80989     0.32335
    10.40000    96.82657   351.19293     0.32337    83.17343     8.80707     0.32337
    10.50000    96.82438   351.19575     0.32339    83.17562     8.80425     0.32339
    10.60000    96.82220   351.19857     0.32341    83.17780     8.80143     0.32341
    10.70000    96.82002   351.20138     0.32343    83.17998     8.79862     0.32343
    10.80000    96.81784   351.20420     0.32345    83.18216     8.79580     0.32345
    10.90000    96.81566   351.20701     0.32347    83.18434     8.79299     0.32347
    11.00000    96.81348   351.20982     0.32349    83.18652     8.79018     0.32349
    11.10000    96.81130   351.21263     0.32351    83.18870     8.78737     0.32351
    11.20000    96.80912   351.21545     0.32353    83.19088     8.78455     0.32353
    11.30000    96.80694   351.21826     0.32355    83.19306     8.78174     0.32355
    11.40000    96.80477   351.22107     0.32357    83.19523     8.77893     0.32357
    11.50000    96.80259   351.22387     0.32359    83.19741     8.77613     0.32359
    11.60000    96.80042   351.22668     0.32361    83.19958     8.77332     0.32361
    11.70000    96.79824   351.22949     0.32363    83.20176     8.77051     0.32363
    11.80000    96.79607   351.23229     0.32365    83.20393     8.76771     0.32365
    11.90000    96.79389   351.23510     0.32367    83.20611     8.76490     0.32367
    12.00000    96.79172   351.23790     0.32369    83.20828     8.76210     0.32369
    12.10000    96.78955   351.24071     0.32370    83.21045     8.75929     0.32370
    12.20000    96.78738   351.24351     0.32372    83.21262     8.75649     0.32372
    12.30000    96.78521   351.24631     0.32374    83.21479     8.75369     0.32374
    12.40000    96.78304   351.24911     0.32376    83.21696     8.75089     0.32376
    12.50000    96.78087   351.25191     0.32378    83.21913     8.74809     0.32378
    12.60000    96.77870   351.25471     0.32380    83.22130     8.74529     0.32380
    12.70000    96.77653   351.25751     0.32382    83.22347     8.74249     0.32382
    12.80000    96.77436   351.26031     0.32384    83.22564     8.73969     0.32384
    12.90000    96.77220   351.26310     0.32386    83.22780     8.73690     0.32386
    13.00000    96.77003   351.26590     0.32388    83.22997     8.73410     0.32388
    13.10000    96.76787   351.26869     0.32390    83.23213     8.73131     0.32390
    13.20000    96.76570   351.27149     0.32392    83.23430     8.72851     0.32392
    13.30000    96.76354   351.27428     0.32394    83.23646     8.72572     0.32394
    13.40000    96.76137   351.27707     0.32396    83.23863     8.72293     0.32396
    13.50000    96.75921   351.27986     0.32398    83.24079     8.72014     0.32398
    13.60000    96.75705   351.28266     0.32400    83.24295     8.71734     0.32400
    13.70000    96.75489   351.28544     0.32402    83.24511     8.71456     0.32402
    13.80000    96.75273   351.28823     0.32404    83.24727     8.71177     0.32404
    13.90000    96.75057   351.29102     0.32406    83.24943     8.70898     0.32406
    14.00000    96.74841   351.29381     0.32408    83.25159     8.70619     0.32408
    14.10000    96.74625   351.29660     0.32410    83.25375     8.70340     0.32410
    14.20000    96.74409   351.29938     0.32412    83.25591     8.70062     0.32412
    14.30000    96.74193   351.30217     0.32414    83.25807     8.69783     0.32414
    14.40000    96.73978   351.30495     0.32416    83.26022     8.69505     0.32416
    14.50000    96.73762   351.30773     0.32418    83.26238     8.69227     0.32418
    14.60000    96.73546   351.31051     0.32420    83.26454     8.68949     0.32420
    14.70000    96.73331   351.31329     0.32422    83.26669     8.68671     0.32422
    14.80000    96.73115   351.31608     0.32424    83.26885     8.68392     0.32424
    14.90000    96.72900   351.31885     0.32426    83.27100     8.68115     0.32426
    15.00000    96.72685   351.32163     0.32428    83.27315     8.67837     0.32428
    15.10000    96.72470   351.32441     0.32429    83.27530     8.67559     0.32429
    15.20000    96.72255   351.32719     0.32431    83.27745     8.67281     0.32431
    15.30000    96.72039   351.32996     0.32433    83.27961     8.67004     0.32433
    15.40000    96.71824   351.33274     0.32435    83.28176     8.66726     0.32435
    15.50000    96.71609   351.33551     0.32437    83.28391     8.66449     0.32437
    15.60000    96.71395   351.33829     0.32439    83.28605     8.66171     0.32439
    15.70000    96.71180   351.34106     0.32441    83.28820     8.65894     0.32441
    15.80000    96.70965   351.34383     0.32443    83.29035     8.65617     0.32443
    15.90000    96.70750   351.34660     0.32445    83.29250     8.65340     0.32445
    16.00000    96.70536   351.34937     0.32447    83.29464     8.65063     0.32447
    16.10000    96.70321   351.35214     0.32449    83.29679     8.64786     0.32449
    16.20000    96.70107   351.35491     0.32451    83.29893     8.64509     0.32451
    16.30000    96.69892   351.35768     0.32453    83.30108     8.64232     0.32453
    16.40000    96.69678   351.36044     0.32455    83.30322     8.63956     0.32455
    16.50000    96.69464   351.36321     0.32457    83.30536     8.63679     0.32457
    16.60000    96.69249   351.36598     0.32459    83.30751     8.63402     0.32459
    16.70000    96.69035   351.36874     0.32461    83.30965     8.63126     0.32461
    16.80000    96.68821   351.37150     0.32463    83.31179     8.62850     0.32463
    16.90000    96.68607   351.37427     0.32465    83.31393     8.62573     0.32465
    17.00000    96.68393   351.37703     0.32467    83.31607     8.62297     0.32467
    17.10000    96.68179   351.37979     0.32469    83.31821     8.62021     0.32469
    17.20000    96.67965   351.38255     0.32471    83.32035     8.61745     0.32471
    17.30000    96.67752   351.38531     0.32473    83.32248     8.61469     0.32473
    17.40000    96.67538   351.38807     0.32475    83.32462     8.61193     0.32475
    17.50000    96.67324   351.39082     0.32477    83.32676     8.60918     0.32477
    17.60000    96.67111   351.39358     0.32479    83.32889     8.60642     0.32479
    17.70000    96.66897   351.39634     0.32481    83.33103     8.60366     0.32481
    17.80000    96.66684   351.39909     0.32483    83.33316     8.60091     0.32483
    17.90000    96.66470   351.40185     0.32485    83.33530     8.59815     0.32485
    18.00000    96.66257   351.40460     0.32487    83.33743     8.59540     0.32487
    18.10000    96.66044   351.40735     0.32489    83.33956     8.59265     0.32489
    18.20000    96.65831   351.41010     0.32491    83.34169     8.58990     0.32491
    18.30000    96.65618   351.41285     0.32493    83.34382     8.58715     0.32493
    18.40000    96.65405   351.41560     0.32495    83.34595     8.58440     0.32495
    18.50000    96.65192   351.41835     0.32497    83.34808     8.58165     0.32497
    18.60000    96.64979   351.42110     0.32499    83.35021     8.57890     0.32499
    18.70000    96.64766   351.42385     0.32501    83.35234     8.57615     0.32501
    18.80000    96.64553   351.42660     0.32503    83.35447     8.57340     0.32503
    18.90000    96.64340   351.42934     0.32505    83.35660     8.57066     0.32505
    19.00000    96.64128   351.43209     0.32507    83.35872     8.56791     0.32507
    19.10000    96.63915   351.43483     0.32509    83.36085     8.56517     0.32509
    19.20000    96.63703   351.43757     0.32511    83.36297     8.56243     0.32511
    19.30000    96.63490   351.44032     0.32513    83.36510     8.55968     0.32513
    19.40000    96.63278   351.44306     0.32515    83.36722     8.55694     0.32515
    19.50000    96.63065   351.44580     0.32517    83.36935     8.55420     0.32517
    19.60000    96.62853   351.44854     0.32519    83.37147     8.55146     0.32519
    19.70000    96.62641   351.45128     0.32521    83.37359     8.54872     0.32521
    19.80000    96.62429   351.45402     0.32523    83.37571     8.54598     0.32523
    19.90000    96.62217   351.45675     0.32525    83.37783     8.54325     0.32525
    20.00000    96.62005   351.45949     0.32527    83.37995     8.54051     0.32527
    20.10000    96.61793   351.46223     0.32529    83.38207     8.53777     0.32529
    20.20000    96.61581   351.46496     0.32531    83.38419     8.53504     0.32531
    20.30000    96.61369   351.46769     0.32533    83.38631     8.53231     0.32533
    20.40000    96.61157   351.47043     0.32535    83.38843     8.52957     0.32535
    20.50000    96.60946   351.47316     0.32537    83.39054     8.52684     0.32537
    20.60000    96.60734   351.47589     0.32539    83.39266     8.52411     0.32539
    20.70000    96.60522   351.47862     0.32541    83.39478     8.52138     0.32541
    20.80000    96.60311   351.48135     0.32543    83.39689     8.51865     0.32543
    20.90000    96.60099   351.48408     0.32545    83.39901     8.51592     0.32545
    21.00000    96.59888   351.48681     0.32547    83.40112     8.51319     0.32547
    21.10000    96.59677   351.48954     0.32549    83.40323     8.51046     0.32549
    21.20000    96.59466   351.49226     0.32551    83.40534     8.50774     0.32551
    21.30000    96.59254   351.49499     0.32553    83.40746     8.50501     0.32553
    21.40000    96.59043   351.49772     0.32555    83.40957     8.50228     0.32555
    21.50000    96.58832   351.50044     0.32557    83.41168     8.49956     0.32557
    21.60000    96.58621   351.50316     0.32559    83.41379     8.49684     0.32559
    21.70000    96.58410   351.50589     0.32561    83.41590     8.49411     0.32561
    21.80000    96.58200   351.50861     0.32563    83.41800     8.49139     0.32563
    21.90000    96.57989   351.51133     0.32565    83.42011     8.48867     0.32565
    22.00000    96.57778   351.51405     0.32567    83.42222     8.48595     0.32567
    22.10000    96.57567   351.51677     0.32569    83.42433     8.48323     0.32569
    22.20000    96.57357   351.51949     0.32571    83.42643     8.48051     0.32571
    22.30000    96.57146   351.52220     0.32573    83.42854     8.47780     0.32573
    22.40000    96.56936   351.52492     0.32575    83.43064     8.47508     0.32575
    22.50000    96.56725   351.52764     0.32577    83.43275     8.47236     0.32577
    22.60000    96.56515   351.53035     0.32579    83.43485     8.46965     0.32579
    22.70000    96.56305   351.53307     0.32581    83.43695     8.46693     0.32581
    22.80000    96.56095   351.53578     0.32583    83.43905     8.46422     0.32583
    22.90000    96.55884   351.53849     0.32585    83.44116     8.46151     0.32585
    23.00000    96.55674   351.54120     0.32587    83.44326     8.45880     0.32587
    23.10000    96.55464   351.54392     0.32589    83.44536     8.45608     0.32589
    23.20000    96.55254   351.54663     0.32591    83.44746     8.45337     0.32591
    23.30000    96.55045   351.54933     0.32593    83.44955     8.45067     0.32593
