 # applied field (T), theta (degree), phi (degree), abs [muB/unitcell], abs [T]
       0.00000000       0.00000000       0.00000000      44.52180009       1.53197026
       0.10000000       1.02907722     360.00000000      44.52277233       1.53200371
       0.20000000       2.00101617     360.00000000      44.52361793       1.53203281
       0.30000000       3.03009954     360.00000000      44.52443489       1.53206092
       0.40000000       4.05919528     360.00000000      44.52517183       1.53208628
       0.50000000       5.08830951     360.00000000      44.52582900       1.53210889
       0.60000000       6.11744823     360.00000000      44.52640686       1.53212877
       0.70000000       7.14661732     360.00000000      44.52690609       1.53214595
       0.80000000       8.17582249     360.00000000      44.52732756       1.53216045
       0.90000000       9.20506931     360.00000000      44.52767234       1.53217232
       1.00000000      10.23436320     360.00000000      44.52794170       1.53218159
       1.10000000      11.26370942     360.00000000      44.52813707       1.53218831
       1.20000000      12.35027218     360.00000000      44.52826170       1.53219260
       1.30000000      13.43690504     360.00000000      44.52830731       1.53219417
       1.40000000      14.46644630     360.00000000      44.52828306       1.53219333
       1.50000000      15.55323152     360.00000000      44.52818149       1.53218984
       1.60000000      16.69727963     360.00000000      44.52799264       1.53218334
       1.70000000      17.78424706     360.00000000      44.52774633       1.53217486
       1.80000000      18.92849799     360.00000000      44.52741123       1.53216333
       1.90000000      20.07286093     360.00000000      44.52700558       1.53214937
       2.00000000      21.21734075     360.00000000      44.52653280       1.53213311
       2.10000000      22.41914828     360.00000000      44.52596313       1.53211350
       2.20000000      23.62109495     360.00000000      44.52532677       1.53209161
       2.30000000      24.82318514     360.00000000      44.52462768       1.53206755
       2.40000000      26.08265082     360.00000000      44.52382709       1.53204000
       2.50000000      27.39951898     360.00000000      44.52292019       1.53200880
       2.60000000      28.65932815     360.00000000      44.52199983       1.53197713
       2.70000000      30.03381549     360.00000000      44.52092521       1.53194015
       2.80000000      31.40851096     360.00000000      44.51979243       1.53190117
       2.90000000      32.84068751     360.00000000      44.51855000       1.53185842
       3.00000000      34.33037352     360.00000000      44.51719529       1.53181181
       3.10000000      35.82030535     360.00000000      44.51578661       1.53176334
       3.20000000      37.42508293     360.00000000      44.51420278       1.53170884
       3.30000000      39.03013795     360.00000000      44.51256498       1.53165248
       3.40000000      40.75010690     360.00000000      44.51074354       1.53158981
       3.50000000      42.58504074     360.00000000      44.50873026       1.53152053
       3.60000000      44.47764234     360.00000000      44.50658791       1.53144681
       3.70000000      46.54262922     360.00000000      44.50416879       1.53136357
       3.80000000      48.72269972     360.00000000      44.50153418       1.53127292
       3.90000000      51.07524884     360.00000000      44.49860065       1.53117198
       4.00000000      53.65769568     360.00000000      44.49527858       1.53105767
       4.10000000      56.52747484     360.00000000      44.49147279       1.53092671
       4.20000000      59.79942432     360.00000000      44.48700611       1.53077301
       4.30000000      63.64580456     360.00000000      44.48161576       1.53058754
       4.40000000      68.41112166     360.00000000      44.47478301       1.53035242
       4.50000000      75.07146081     360.00000000      44.46508675       1.53001878
       4.60000000      90.00000000     360.00000000      44.44411718       1.52929723
       4.70000000      90.00000000     360.00000000      44.44436305       1.52930569
       4.80000000      90.00000000     360.00000000      44.44460890       1.52931415
       4.90000000      90.00000000     360.00000000      44.44485473       1.52932261
       5.00000000      90.00000000     360.00000000      44.44510053       1.52933107
       5.10000000      90.00000000     360.00000000      44.44534631       1.52933952
       5.20000000      90.00000000     360.00000000      44.44559207       1.52934798
       5.30000000      90.00000000     360.00000000      44.44583781       1.52935644
       5.40000000      90.00000000     360.00000000      44.44608352       1.52936489
       5.50000000      90.00000000     360.00000000      44.44632921       1.52937335
       5.60000000      90.00000000     360.00000000      44.44657488       1.52938180
       5.70000000      90.00000000     360.00000000      44.44682053       1.52939025
       5.80000000      90.00000000     360.00000000      44.44706615       1.52939870
       5.90000000      90.00000000     360.00000000      44.44731175       1.52940715
       6.00000000      90.00000000     360.00000000      44.44755733       1.52941560
       6.10000000      90.00000000     360.00000000      44.44780289       1.52942405
       6.20000000      90.00000000     360.00000000      44.44804842       1.52943250
       6.30000000      90.00000000     360.00000000      44.44829393       1.52944095
       6.40000000      90.00000000     360.00000000      44.44853942       1.52944940
       6.50000000      90.00000000     360.00000000      44.44878488       1.52945784
       6.60000000      90.00000000     360.00000000      44.44903033       1.52946629
       6.70000000      90.00000000     360.00000000      44.44927575       1.52947473
       6.80000000      90.00000000     360.00000000      44.44952114       1.52948318
       6.90000000      90.00000000     360.00000000      44.44976652       1.52949162
       7.00000000      90.00000000     360.00000000      44.45001187       1.52950006
       7.10000000      90.00000000     360.00000000      44.45025720       1.52950851
       7.20000000      90.00000000     360.00000000      44.45050251       1.52951695
       7.30000000      90.00000000     360.00000000      44.45074779       1.52952539
       7.40000000      90.00000000     360.00000000      44.45099306       1.52953383
       7.50000000      90.00000000     360.00000000      44.45123830       1.52954226
       7.60000000      90.00000000     360.00000000      44.45148352       1.52955070
       7.70000000      90.00000000     360.00000000      44.45172871       1.52955914
       7.80000000      90.00000000     360.00000000      44.45197388       1.52956758
       7.90000000      90.00000000     360.00000000      44.45221903       1.52957601
       8.00000000      90.00000000     360.00000000      44.45246416       1.52958445
       8.10000000      90.00000000     360.00000000      44.45270927       1.52959288
       8.20000000      90.00000000     360.00000000      44.45295435       1.52960131
       8.30000000      90.00000000     360.00000000      44.45319941       1.52960974
       8.40000000      90.00000000     360.00000000      44.45344445       1.52961818
       8.50000000      90.00000000     360.00000000      44.45368947       1.52962661
       8.60000000      90.00000000     360.00000000      44.45393446       1.52963504
       8.70000000      90.00000000     360.00000000      44.45417943       1.52964347
       8.80000000      90.00000000     360.00000000      44.45442438       1.52965190
       8.90000000      90.00000000     360.00000000      44.45466931       1.52966032
       9.00000000      90.00000000     360.00000000      44.45491421       1.52966875
       9.10000000      90.00000000     360.00000000      44.45515910       1.52967718
       9.20000000      90.00000000     360.00000000      44.45540396       1.52968560
       9.30000000      90.00000000     360.00000000      44.45564879       1.52969403
       9.40000000      90.00000000     360.00000000      44.45589361       1.52970245
       9.50000000      90.00000000     360.00000000      44.45613840       1.52971087
       9.60000000      90.00000000     360.00000000      44.45638317       1.52971930
       9.70000000      90.00000000     360.00000000      44.45662792       1.52972772
       9.80000000      90.00000000     360.00000000      44.45687265       1.52973614
       9.90000000      90.00000000     360.00000000      44.45711735       1.52974456
      10.00000000      90.00000000     360.00000000      44.45736203       1.52975298
      10.10000000      90.00000000     360.00000000      44.45760669       1.52976140
      10.20000000      90.00000000     360.00000000      44.45785133       1.52976981
      10.30000000      90.00000000     360.00000000      44.45809594       1.52977823
      10.40000000      90.00000000     360.00000000      44.45834054       1.52978665
      10.50000000      90.00000000     360.00000000      44.45858511       1.52979506
      10.60000000      90.00000000     360.00000000      44.45882965       1.52980348
      10.70000000      90.00000000     360.00000000      44.45907418       1.52981189
      10.80000000      90.00000000     360.00000000      44.45931868       1.52982031
      10.90000000      90.00000000     360.00000000      44.45956317       1.52982872
      11.00000000      90.00000000     360.00000000      44.45980763       1.52983713
      11.10000000      90.00000000     360.00000000      44.46005206       1.52984554
      11.20000000      90.00000000     360.00000000      44.46029648       1.52985395
      11.30000000      90.00000000     360.00000000      44.46054087       1.52986236
      11.40000000      90.00000000     360.00000000      44.46078524       1.52987077
      11.50000000      90.00000000     360.00000000      44.46102959       1.52987918
      11.60000000      90.00000000     360.00000000      44.46127392       1.52988758
      11.70000000      90.00000000     360.00000000      44.46151822       1.52989599
      11.80000000      90.00000000     360.00000000      44.46176250       1.52990440
      11.90000000      90.00000000     360.00000000      44.46200676       1.52991280
      12.00000000      90.00000000     360.00000000      44.46225100       1.52992121
      12.10000000      90.00000000     360.00000000      44.46249522       1.52992961
      12.20000000      90.00000000     360.00000000      44.46273941       1.52993801
      12.30000000      90.00000000     360.00000000      44.46298359       1.52994641
      12.40000000      90.00000000     360.00000000      44.46322774       1.52995481
      12.50000000      90.00000000     360.00000000      44.46347186       1.52996321
      12.60000000      90.00000000     360.00000000      44.46371597       1.52997161
      12.70000000      90.00000000     360.00000000      44.46396005       1.52998001
      12.80000000      90.00000000     360.00000000      44.46420412       1.52998841
      12.90000000      90.00000000     360.00000000      44.46444816       1.52999681
      13.00000000      90.00000000     360.00000000      44.46469217       1.53000520
      13.10000000      90.00000000     360.00000000      44.46493617       1.53001360
      13.20000000      90.00000000     360.00000000      44.46518014       1.53002200
      13.30000000      90.00000000     360.00000000      44.46542410       1.53003039
      13.40000000      90.00000000     360.00000000      44.46566803       1.53003878
      13.50000000      90.00000000     360.00000000      44.46591193       1.53004718
      13.60000000      90.00000000     360.00000000      44.46615582       1.53005557
      13.70000000      90.00000000     360.00000000      44.46639968       1.53006396
      13.80000000      90.00000000     360.00000000      44.46664353       1.53007235
      13.90000000      90.00000000     360.00000000      44.46688735       1.53008074
      14.00000000      90.00000000     360.00000000      44.46713114       1.53008913
      14.10000000      90.00000000     360.00000000      44.46737492       1.53009752
      14.20000000      90.00000000     360.00000000      44.46761868       1.53010590
      14.30000000      90.00000000     360.00000000      44.46786241       1.53011429
      14.40000000      90.00000000     360.00000000      44.46810612       1.53012268
      14.50000000      90.00000000     360.00000000      44.46834981       1.53013106
      14.60000000      90.00000000     360.00000000      44.46859348       1.53013945
      14.70000000      90.00000000     360.00000000      44.46883712       1.53014783
      14.80000000      90.00000000     360.00000000      44.46908074       1.53015621
      14.90000000      90.00000000     360.00000000      44.46932435       1.53016459
      15.00000000      90.00000000     360.00000000      44.46956793       1.53017298
      15.10000000      90.00000000     360.00000000      44.46981148       1.53018136
      15.20000000      90.00000000     360.00000000      44.47005502       1.53018974
      15.30000000      90.00000000     360.00000000      44.47029853       1.53019812
      15.40000000      90.00000000     360.00000000      44.47054203       1.53020649
      15.50000000      90.00000000     360.00000000      44.47078550       1.53021487
      15.60000000      90.00000000     360.00000000      44.47102895       1.53022325
      15.70000000      90.00000000     360.00000000      44.47127237       1.53023163
      15.80000000      90.00000000     360.00000000      44.47151578       1.53024000
      15.90000000      90.00000000     360.00000000      44.47175916       1.53024838
      16.00000000      90.00000000     360.00000000      44.47200252       1.53025675
      16.10000000      90.00000000     360.00000000      44.47224586       1.53026512
      16.20000000      90.00000000     360.00000000      44.47248918       1.53027350
      16.30000000      90.00000000     360.00000000      44.47273248       1.53028187
      16.40000000      90.00000000     360.00000000      44.47297576       1.53029024
      16.50000000      90.00000000     360.00000000      44.47321901       1.53029861
      16.60000000      90.00000000     360.00000000      44.47346224       1.53030698
      16.70000000      90.00000000     360.00000000      44.47370545       1.53031535
      16.80000000      90.00000000     360.00000000      44.47394864       1.53032371
      16.90000000      90.00000000     360.00000000      44.47419181       1.53033208
      17.00000000      90.00000000     360.00000000      44.47443495       1.53034045
      17.10000000      90.00000000     360.00000000      44.47467807       1.53034881
      17.20000000      90.00000000     360.00000000      44.47492117       1.53035718
      17.30000000      90.00000000     360.00000000      44.47516425       1.53036554
      17.40000000      90.00000000     360.00000000      44.47540731       1.53037391
      17.50000000      90.00000000     360.00000000      44.47565035       1.53038227
      17.60000000      90.00000000     360.00000000      44.47589337       1.53039063
      17.70000000      90.00000000     360.00000000      44.47613636       1.53039899
      17.80000000      90.00000000     360.00000000      44.47637933       1.53040735
      17.90000000      90.00000000     360.00000000      44.47662228       1.53041571
      18.00000000      90.00000000     360.00000000      44.47686521       1.53042407
      18.10000000      90.00000000     360.00000000      44.47710812       1.53043243
      18.20000000      90.00000000     360.00000000      44.47735100       1.53044079
      18.30000000      90.00000000     360.00000000      44.47759387       1.53044914
      18.40000000      90.00000000     360.00000000      44.47783671       1.53045750
      18.50000000      90.00000000     360.00000000      44.47807953       1.53046586
      18.60000000      90.00000000     360.00000000      44.47832233       1.53047421
      18.70000000      90.00000000     360.00000000      44.47856511       1.53048256
      18.80000000      90.00000000     360.00000000      44.47880787       1.53049092
      18.90000000      90.00000000     360.00000000      44.47905060       1.53049927
      19.00000000      90.00000000     360.00000000      44.47929331       1.53050762
      19.10000000      90.00000000     360.00000000      44.47953601       1.53051597
      19.20000000      90.00000000     360.00000000      44.47977868       1.53052432
      19.30000000      90.00000000     360.00000000      44.48002133       1.53053267
      19.40000000      90.00000000     360.00000000      44.48026395       1.53054102
      19.50000000      90.00000000     360.00000000      44.48050656       1.53054937
      19.60000000      90.00000000     360.00000000      44.48074914       1.53055772
      19.70000000      90.00000000     360.00000000      44.48099171       1.53056606
      19.80000000      90.00000000     360.00000000      44.48123425       1.53057441
      19.90000000      90.00000000     360.00000000      44.48147677       1.53058275
      20.00000000      90.00000000     360.00000000      44.48171927       1.53059110
      20.10000000      90.00000000     360.00000000      44.48196175       1.53059944
      20.20000000      90.00000000     360.00000000      44.48220420       1.53060778
      20.30000000      90.00000000     360.00000000      44.48244664       1.53061613
      20.40000000      90.00000000     360.00000000      44.48268905       1.53062447
      20.50000000      90.00000000     360.00000000      44.48293144       1.53063281
      20.60000000      90.00000000     360.00000000      44.48317381       1.53064115
      20.70000000      90.00000000     360.00000000      44.48341616       1.53064949
      20.80000000      90.00000000     360.00000000      44.48365849       1.53065782
      20.90000000      90.00000000     360.00000000      44.48390080       1.53066616
      21.00000000      90.00000000     360.00000000      44.48414308       1.53067450
      21.10000000      90.00000000     360.00000000      44.48438535       1.53068284
      21.20000000      90.00000000     360.00000000      44.48462759       1.53069117
      21.30000000      90.00000000     360.00000000      44.48486981       1.53069951
      21.40000000      90.00000000     360.00000000      44.48511201       1.53070784
      21.50000000      90.00000000     360.00000000      44.48535419       1.53071617
      21.60000000      90.00000000     360.00000000      44.48559635       1.53072451
      21.70000000      90.00000000     360.00000000      44.48583849       1.53073284
      21.80000000      90.00000000     360.00000000      44.48608060       1.53074117
      21.90000000      90.00000000     360.00000000      44.48632270       1.53074950
      22.00000000      90.00000000     360.00000000      44.48656477       1.53075783
      22.10000000      90.00000000     360.00000000      44.48680682       1.53076616
      22.20000000      90.00000000     360.00000000      44.48704885       1.53077449
      22.30000000      90.00000000     360.00000000      44.48729086       1.53078281
      22.40000000      90.00000000     360.00000000      44.48753285       1.53079114
      22.50000000      90.00000000     360.00000000      44.48777481       1.53079947
      22.60000000      90.00000000     360.00000000      44.48801676       1.53080779
      22.70000000      90.00000000     360.00000000      44.48825868       1.53081611
      22.80000000      90.00000000     360.00000000      44.48850059       1.53082444
      22.90000000      90.00000000     360.00000000      44.48874247       1.53083276
      23.00000000      90.00000000     360.00000000      44.48898433       1.53084108
