 # applied field (T), theta (degree), phi (degree), abs [muB/unitcell], abs [T]
       0.00000000       0.00000000       0.00000000      43.63026706       1.51932649
       0.10000000       0.79981280     360.00000000      43.63024101       1.51932558
       0.20000000       1.65671428     360.00000000      43.63015489       1.51932259
       0.30000000       2.45653997     360.00000000      43.63002098       1.51931792
       0.40000000       3.31346458     360.00000000      43.62981934       1.51931090
       0.50000000       4.11332044     360.00000000      43.62957872       1.51930252
       0.60000000       4.97028661     360.00000000      43.62926328       1.51929154
       0.70000000       5.77018964     360.00000000      43.62891801       1.51927951
       0.80000000       6.62721540     360.00000000      43.62849145       1.51926466
       0.90000000       7.42718217     360.00000000      43.62804446       1.51924909
       1.00000000       8.28428500     360.00000000      43.62751039       1.51923050
       1.10000000       9.14143437     360.00000000      43.62692233       1.51921002
       1.20000000       9.99863468     360.00000000      43.62628159       1.51918771
       1.30000000      10.85589018     360.00000000      43.62558962       1.51916361
       1.40000000      11.71320500     360.00000000      43.62484797       1.51913778
       1.50000000      12.57058311     360.00000000      43.62405831       1.51911029
       1.60000000      13.48515248     360.00000000      43.62316166       1.51907906
       1.70000000      14.34267349     360.00000000      43.62227822       1.51904830
       1.80000000      15.25740370     360.00000000      43.62128546       1.51901373
       1.90000000      16.17222301     360.00000000      43.62024658       1.51897755
       2.00000000      17.08713521     360.00000000      43.61916414       1.51893986
       2.10000000      18.05929711     360.00000000      43.61796510       1.51889810
       2.20000000      18.97441189     360.00000000      43.61680117       1.51885757
       2.30000000      19.94679647     360.00000000      43.61552144       1.51881301
       2.40000000      20.91930082     360.00000000      43.61420510       1.51876717
       2.50000000      21.94911006     360.00000000      43.61277059       1.51871722
       2.60000000      22.97906026     360.00000000      43.61130288       1.51866611
       2.70000000      24.00915397     360.00000000      43.60980631       1.51861399
       2.80000000      25.03939327     360.00000000      43.60828525       1.51856102
       2.90000000      26.12699572     360.00000000      43.60665260       1.51850417
       3.00000000      27.27198949     360.00000000      43.60490976       1.51844348
       3.10000000      28.41716847     360.00000000      43.60315292       1.51838230
       3.20000000      29.61977789     360.00000000      43.60129423       1.51831758
       3.30000000      30.82259170     360.00000000      43.59943298       1.51825276
       3.40000000      32.08287394     360.00000000      43.59748200       1.51818483
       3.50000000      33.40065324     360.00000000      43.59544919       1.51811404
       3.60000000      34.77595788     360.00000000      43.59334423       1.51804074
       3.70000000      36.20881520     360.00000000      43.59117867       1.51796533
       3.80000000      37.69925110     360.00000000      43.58896588       1.51788827
       3.90000000      39.30461123     360.00000000      43.58663398       1.51780707
       4.00000000      41.02495184     360.00000000      43.58420801       1.51772259
       4.10000000      42.80297936     360.00000000      43.58179823       1.51763867
       4.20000000      44.81077894     360.00000000      43.57919653       1.51754807
       4.30000000      46.93372080     360.00000000      43.57661069       1.51745803
       4.40000000      49.34397795     360.00000000      43.57388449       1.51736309
       4.50000000      52.09905797     360.00000000      43.57105901       1.51726470
       4.60000000      55.37129064     360.00000000      43.56811507       1.51716219
       4.70000000      59.39048567     360.00000000      43.56510845       1.51705749
       4.80000000      65.01814530     360.00000000      43.56194279       1.51694725
       4.90000000      75.47043459     360.00000000      43.55866880       1.51683324
       5.00000000      90.00000000     360.00000000      43.55761758       1.51679664
       5.10000000      90.00000000     360.00000000      43.55783277       1.51680413
       5.20000000      90.00000000     360.00000000      43.55804794       1.51681162
       5.30000000      90.00000000     360.00000000      43.55826307       1.51681911
       5.40000000      90.00000000     360.00000000      43.55847818       1.51682660
       5.50000000      90.00000000     360.00000000      43.55869326       1.51683409
       5.60000000      90.00000000     360.00000000      43.55890831       1.51684158
       5.70000000      90.00000000     360.00000000      43.55912333       1.51684907
       5.80000000      90.00000000     360.00000000      43.55933832       1.51685656
       5.90000000      90.00000000     360.00000000      43.55955329       1.51686404
       6.00000000      90.00000000     360.00000000      43.55976822       1.51687153
       6.10000000      90.00000000     360.00000000      43.55998313       1.51687901
       6.20000000      90.00000000     360.00000000      43.56019801       1.51688649
       6.30000000      90.00000000     360.00000000      43.56041286       1.51689398
       6.40000000      90.00000000     360.00000000      43.56062768       1.51690146
       6.50000000      90.00000000     360.00000000      43.56084248       1.51690894
       6.60000000      90.00000000     360.00000000      43.56105724       1.51691641
       6.70000000      90.00000000     360.00000000      43.56127198       1.51692389
       6.80000000      90.00000000     360.00000000      43.56148669       1.51693137
       6.90000000      90.00000000     360.00000000      43.56170137       1.51693884
       7.00000000      90.00000000     360.00000000      43.56191602       1.51694632
       7.10000000      90.00000000     360.00000000      43.56213064       1.51695379
       7.20000000      90.00000000     360.00000000      43.56234524       1.51696127
       7.30000000      90.00000000     360.00000000      43.56255980       1.51696874
       7.40000000      90.00000000     360.00000000      43.56277434       1.51697621
       7.50000000      90.00000000     360.00000000      43.56298885       1.51698368
       7.60000000      90.00000000     360.00000000      43.56320333       1.51699115
       7.70000000      90.00000000     360.00000000      43.56341778       1.51699862
       7.80000000      90.00000000     360.00000000      43.56363221       1.51700608
       7.90000000      90.00000000     360.00000000      43.56384660       1.51701355
       8.00000000      90.00000000     360.00000000      43.56406097       1.51702101
       8.10000000      90.00000000     360.00000000      43.56427531       1.51702848
       8.20000000      90.00000000     360.00000000      43.56448962       1.51703594
       8.30000000      90.00000000     360.00000000      43.56470390       1.51704340
       8.40000000      90.00000000     360.00000000      43.56491816       1.51705086
       8.50000000      90.00000000     360.00000000      43.56513238       1.51705832
       8.60000000      90.00000000     360.00000000      43.56534658       1.51706578
       8.70000000      90.00000000     360.00000000      43.56556075       1.51707324
       8.80000000      90.00000000     360.00000000      43.56577489       1.51708070
       8.90000000      90.00000000     360.00000000      43.56598900       1.51708815
       9.00000000      90.00000000     360.00000000      43.56620309       1.51709561
       9.10000000      90.00000000     360.00000000      43.56641714       1.51710306
       9.20000000      90.00000000     360.00000000      43.56663117       1.51711051
       9.30000000      90.00000000     360.00000000      43.56684517       1.51711797
       9.40000000      90.00000000     360.00000000      43.56705914       1.51712542
       9.50000000      90.00000000     360.00000000      43.56727309       1.51713287
       9.60000000      90.00000000     360.00000000      43.56748700       1.51714032
       9.70000000      90.00000000     360.00000000      43.56770089       1.51714776
       9.80000000      90.00000000     360.00000000      43.56791475       1.51715521
       9.90000000      90.00000000     360.00000000      43.56812858       1.51716266
      10.00000000      90.00000000     360.00000000      43.56834238       1.51717010
      10.10000000      90.00000000     360.00000000      43.56855616       1.51717755
      10.20000000      90.00000000     360.00000000      43.56876991       1.51718499
      10.30000000      90.00000000     360.00000000      43.56898363       1.51719243
      10.40000000      90.00000000     360.00000000      43.56919732       1.51719987
      10.50000000      90.00000000     360.00000000      43.56941098       1.51720731
      10.60000000      90.00000000     360.00000000      43.56962461       1.51721475
      10.70000000      90.00000000     360.00000000      43.56983822       1.51722219
      10.80000000      90.00000000     360.00000000      43.57005180       1.51722963
      10.90000000      90.00000000     360.00000000      43.57026535       1.51723707
      11.00000000      90.00000000     360.00000000      43.57047887       1.51724450
      11.10000000      90.00000000     360.00000000      43.57069237       1.51725194
      11.20000000      90.00000000     360.00000000      43.57090583       1.51725937
      11.30000000      90.00000000     360.00000000      43.57111927       1.51726680
      11.40000000      90.00000000     360.00000000      43.57133268       1.51727423
      11.50000000      90.00000000     360.00000000      43.57154606       1.51728166
      11.60000000      90.00000000     360.00000000      43.57175942       1.51728909
      11.70000000      90.00000000     360.00000000      43.57197275       1.51729652
      11.80000000      90.00000000     360.00000000      43.57218604       1.51730395
      11.90000000      90.00000000     360.00000000      43.57239931       1.51731138
      12.00000000      90.00000000     360.00000000      43.57261256       1.51731880
      12.10000000      90.00000000     360.00000000      43.57282577       1.51732623
      12.20000000      90.00000000     360.00000000      43.57303896       1.51733365
      12.30000000      90.00000000     360.00000000      43.57325212       1.51734107
      12.40000000      90.00000000     360.00000000      43.57346525       1.51734850
      12.50000000      90.00000000     360.00000000      43.57367835       1.51735592
      12.60000000      90.00000000     360.00000000      43.57389143       1.51736334
      12.70000000      90.00000000     360.00000000      43.57410448       1.51737076
      12.80000000      90.00000000     360.00000000      43.57431750       1.51737817
      12.90000000      90.00000000     360.00000000      43.57453049       1.51738559
      13.00000000      90.00000000     360.00000000      43.57474346       1.51739301
      13.10000000      90.00000000     360.00000000      43.57495639       1.51740042
      13.20000000      90.00000000     360.00000000      43.57516930       1.51740784
      13.30000000      90.00000000     360.00000000      43.57538218       1.51741525
      13.40000000      90.00000000     360.00000000      43.57559504       1.51742266
      13.50000000      90.00000000     360.00000000      43.57580786       1.51743007
      13.60000000      90.00000000     360.00000000      43.57602066       1.51743748
      13.70000000      90.00000000     360.00000000      43.57623343       1.51744489
      13.80000000      90.00000000     360.00000000      43.57644617       1.51745230
      13.90000000      90.00000000     360.00000000      43.57665889       1.51745971
      14.00000000      90.00000000     360.00000000      43.57687157       1.51746711
      14.10000000      90.00000000     360.00000000      43.57708423       1.51747452
      14.20000000      90.00000000     360.00000000      43.57729687       1.51748192
      14.30000000      90.00000000     360.00000000      43.57750947       1.51748933
      14.40000000      90.00000000     360.00000000      43.57772205       1.51749673
      14.50000000      90.00000000     360.00000000      43.57793460       1.51750413
      14.60000000      90.00000000     360.00000000      43.57814712       1.51751153
      14.70000000      90.00000000     360.00000000      43.57835961       1.51751893
      14.80000000      90.00000000     360.00000000      43.57857208       1.51752633
      14.90000000      90.00000000     360.00000000      43.57878452       1.51753373
      15.00000000      90.00000000     360.00000000      43.57899693       1.51754112
      15.10000000      90.00000000     360.00000000      43.57920931       1.51754852
      15.20000000      90.00000000     360.00000000      43.57942167       1.51755591
      15.30000000      90.00000000     360.00000000      43.57963399       1.51756331
      15.40000000      90.00000000     360.00000000      43.57984629       1.51757070
      15.50000000      90.00000000     360.00000000      43.58005857       1.51757809
      15.60000000      90.00000000     360.00000000      43.58027081       1.51758548
      15.70000000      90.00000000     360.00000000      43.58048303       1.51759287
      15.80000000      90.00000000     360.00000000      43.58069522       1.51760026
      15.90000000      90.00000000     360.00000000      43.58090739       1.51760765
      16.00000000      90.00000000     360.00000000      43.58111952       1.51761504
      16.10000000      90.00000000     360.00000000      43.58133163       1.51762242
      16.20000000      90.00000000     360.00000000      43.58154371       1.51762981
      16.30000000      90.00000000     360.00000000      43.58175576       1.51763719
      16.40000000      90.00000000     360.00000000      43.58196779       1.51764458
      16.50000000      90.00000000     360.00000000      43.58217979       1.51765196
      16.60000000      90.00000000     360.00000000      43.58239176       1.51765934
      16.70000000      90.00000000     360.00000000      43.58260370       1.51766672
      16.80000000      90.00000000     360.00000000      43.58281562       1.51767410
      16.90000000      90.00000000     360.00000000      43.58302751       1.51768148
      17.00000000      90.00000000     360.00000000      43.58323937       1.51768886
      17.10000000      90.00000000     360.00000000      43.58345120       1.51769623
      17.20000000      90.00000000     360.00000000      43.58366301       1.51770361
      17.30000000      90.00000000     360.00000000      43.58387479       1.51771098
      17.40000000      90.00000000     360.00000000      43.58408654       1.51771836
      17.50000000      90.00000000     360.00000000      43.58429827       1.51772573
      17.60000000      90.00000000     360.00000000      43.58450997       1.51773310
      17.70000000      90.00000000     360.00000000      43.58472164       1.51774047
      17.80000000      90.00000000     360.00000000      43.58493328       1.51774784
      17.90000000      90.00000000     360.00000000      43.58514490       1.51775521
      18.00000000      90.00000000     360.00000000      43.58535648       1.51776258
      18.10000000      90.00000000     360.00000000      43.58556805       1.51776995
      18.20000000      90.00000000     360.00000000      43.58577958       1.51777731
      18.30000000      90.00000000     360.00000000      43.58599109       1.51778468
      18.40000000      90.00000000     360.00000000      43.58620257       1.51779204
      18.50000000      90.00000000     360.00000000      43.58641402       1.51779941
      18.60000000      90.00000000     360.00000000      43.58662544       1.51780677
      18.70000000      90.00000000     360.00000000      43.58683684       1.51781413
      18.80000000      90.00000000     360.00000000      43.58704821       1.51782149
      18.90000000      90.00000000     360.00000000      43.58725956       1.51782885
      19.00000000      90.00000000     360.00000000      43.58747087       1.51783621
      19.10000000      90.00000000     360.00000000      43.58768216       1.51784357
      19.20000000      90.00000000     360.00000000      43.58789342       1.51785092
      19.30000000      90.00000000     360.00000000      43.58810466       1.51785828
      19.40000000      90.00000000     360.00000000      43.58831587       1.51786564
      19.50000000      90.00000000     360.00000000      43.58852705       1.51787299
      19.60000000      90.00000000     360.00000000      43.58873820       1.51788034
      19.70000000      90.00000000     360.00000000      43.58894933       1.51788769
      19.80000000      90.00000000     360.00000000      43.58916043       1.51789505
      19.90000000      90.00000000     360.00000000      43.58937150       1.51790240
      20.00000000      90.00000000     360.00000000      43.58958255       1.51790974
      20.10000000      90.00000000     360.00000000      43.58979357       1.51791709
      20.20000000      90.00000000     360.00000000      43.59000456       1.51792444
      20.30000000      90.00000000     360.00000000      43.59021552       1.51793179
      20.40000000      90.00000000     360.00000000      43.59042646       1.51793913
      20.50000000      90.00000000     360.00000000      43.59063737       1.51794648
      20.60000000      90.00000000     360.00000000      43.59084825       1.51795382
      20.70000000      90.00000000     360.00000000      43.59105911       1.51796116
      20.80000000      90.00000000     360.00000000      43.59126994       1.51796850
      20.90000000      90.00000000     360.00000000      43.59148074       1.51797585
      21.00000000      90.00000000     360.00000000      43.59169152       1.51798318
      21.10000000      90.00000000     360.00000000      43.59190227       1.51799052
      21.20000000      90.00000000     360.00000000      43.59211299       1.51799786
      21.30000000      90.00000000     360.00000000      43.59232369       1.51800520
      21.40000000      90.00000000     360.00000000      43.59253435       1.51801253
      21.50000000      90.00000000     360.00000000      43.59274500       1.51801987
      21.60000000      90.00000000     360.00000000      43.59295561       1.51802720
      21.70000000      90.00000000     360.00000000      43.59316620       1.51803454
      21.80000000      90.00000000     360.00000000      43.59337676       1.51804187
      21.90000000      90.00000000     360.00000000      43.59358729       1.51804920
      22.00000000      90.00000000     360.00000000      43.59379780       1.51805653
      22.10000000      90.00000000     360.00000000      43.59400828       1.51806386
      22.20000000      90.00000000     360.00000000      43.59421873       1.51807119
      22.30000000      90.00000000     360.00000000      43.59442916       1.51807852
      22.40000000      90.00000000     360.00000000      43.59463956       1.51808584
      22.50000000      90.00000000     360.00000000      43.59484993       1.51809317
      22.60000000      90.00000000     360.00000000      43.59506028       1.51810049
      22.70000000      90.00000000     360.00000000      43.59527060       1.51810782
      22.80000000      90.00000000     360.00000000      43.59548089       1.51811514
      22.90000000      90.00000000     360.00000000      43.59569116       1.51812246
      23.00000000      90.00000000     360.00000000      43.59590140       1.51812978
