 # applied field (T), theta (degree), phi (degree), abs [muB/unitcell], abs [T]
       0.00000000       0.00000000       0.00000000      46.45130438       1.55285786
       0.10000000       0.39872616     360.00000000      46.45130737       1.55285796
       0.20000000       0.79745349     360.00000000      46.45131634       1.55285825
       0.30000000       1.19618315     360.00000000      46.45133128       1.55285875
       0.40000000       1.59491631     360.00000000      46.45135220       1.55285945
       0.50000000       1.99365412     360.00000000      46.45137911       1.55286035
       0.60000000       2.39239777     360.00000000      46.45141202       1.55286145
       0.70000000       2.79114839     360.00000000      46.45145092       1.55286275
       0.80000000       3.18990716     360.00000000      46.45149583       1.55286426
       0.90000000       3.58867523     360.00000000      46.45154676       1.55286596
       1.00000000       3.98745376     360.00000000      46.45160371       1.55286786
       1.10000000       4.38624389     360.00000000      46.45166670       1.55286997
       1.20000000       4.78504678     360.00000000      46.45173575       1.55287228
       1.30000000       5.18386357     360.00000000      46.45181085       1.55287479
       1.40000000       5.58269539     360.00000000      46.45189204       1.55287750
       1.50000000       5.98154340     360.00000000      46.45197931       1.55288042
       1.60000000       6.38040871     360.00000000      46.45207270       1.55288354
       1.70000000       6.77929246     360.00000000      46.45217220       1.55288687
       1.80000000       7.17819576     360.00000000      46.45227784       1.55289040
       1.90000000       7.57711973     360.00000000      46.45238964       1.55289414
       2.00000000       8.03296047       0.00000000      46.45252232       1.55289857
       2.10000000       8.43193250       0.00000000      46.45264722       1.55290275
       2.20000000       8.83092866     360.00000000      46.45277833       1.55290713
       2.30000000       9.22995004       0.00000000      46.45291565       1.55291172
       2.40000000       9.68590783     360.00000000      46.45307706       1.55291712
       2.50000000      10.08498691     360.00000000      46.45322763       1.55292215
       2.60000000      10.54101356       0.00000000      46.45340395       1.55292804
       2.70000000      10.94015521     360.00000000      46.45356781       1.55293352
       2.80000000      11.39625624     360.00000000      46.45375910       1.55293992
       2.90000000      11.79546523       0.00000000      46.45393630       1.55294584
       3.00000000      12.25164603       0.00000000      46.45414261       1.55295274
       3.10000000      12.70787158     360.00000000      46.45435687       1.55295990
       3.20000000      13.10719286     360.00000000      46.45455452       1.55296651
       3.30000000      13.56350619     360.00000000      46.45478382       1.55297417
       3.40000000      14.01986846     360.00000000      46.45502108       1.55298210
       3.50000000      14.47628107     360.00000000      46.45526629       1.55299030
       3.60000000      14.93274540     360.00000000      46.45551944       1.55299876
       3.70000000      15.44624565     360.00000000      46.45580949       1.55300846
       3.80000000      15.90282445     360.00000000      46.45607932       1.55301748
       3.90000000      16.35945911     360.00000000      46.45635699       1.55302676
       4.00000000      16.87315612     360.00000000      46.45667421       1.55303737
       4.10000000      17.32991372     360.00000000      46.45696832       1.55304720
       4.20000000      17.84375233     360.00000000      46.45730369       1.55305841
       4.30000000      18.35766836     360.00000000      46.45764850       1.55306994
       4.40000000      18.87166339     360.00000000      46.45800265       1.55308178
       4.50000000      19.38573894     360.00000000      46.45836602       1.55309392
       4.60000000      19.89989647     360.00000000      46.45873849       1.55310638
       4.70000000      20.47120542     360.00000000      46.45915820       1.55312041
       4.80000000      21.04261937     360.00000000      46.45958855       1.55313479
       4.90000000      21.61414001     360.00000000      46.46002931       1.55314953
       5.00000000      22.18576891     360.00000000      46.46048021       1.55316460
       5.10000000      22.75750751     360.00000000      46.46094096       1.55318000
       5.20000000      23.38648150     360.00000000      46.46145423       1.55319716
       5.30000000      24.01559174     360.00000000      46.46197843       1.55321469
       5.40000000      24.64483960     360.00000000      46.46251308       1.55323256
       5.50000000      25.33139002     360.00000000      46.46310328       1.55325229
       5.60000000      26.01810722     360.00000000      46.46370442       1.55327239
       5.70000000      26.76218545     360.00000000      46.46436302       1.55329440
       5.80000000      27.50646167     360.00000000      46.46503235       1.55331678
       5.90000000      28.30816163     360.00000000      46.46576005       1.55334111
       6.00000000      29.16733510     360.00000000      46.46654668       1.55336740
       6.10000000      30.08403452     360.00000000      46.46739221       1.55339567
       6.20000000      90.00000000     360.00000000      46.48173205       1.55387505
       6.30000000      90.00000000     360.00000000      46.48177832       1.55387659
       6.40000000      90.00000000     360.00000000      46.48182459       1.55387814
       6.50000000      90.00000000     360.00000000      46.48187086       1.55387969
       6.60000000      90.00000000     360.00000000      46.48191714       1.55388123
       6.70000000      90.00000000     360.00000000      46.48196342       1.55388278
       6.80000000      90.00000000     360.00000000      46.48200970       1.55388433
       6.90000000      90.00000000     360.00000000      46.48205599       1.55388588
       7.00000000      90.00000000     360.00000000      46.48210229       1.55388742
       7.10000000      90.00000000     360.00000000      46.48214858       1.55388897
       7.20000000      90.00000000     360.00000000      46.48219489       1.55389052
       7.30000000      90.00000000     360.00000000      46.48224120       1.55389207
       7.40000000      90.00000000     360.00000000      46.48228751       1.55389361
       7.50000000      90.00000000     360.00000000      46.48233382       1.55389516
       7.60000000      90.00000000     360.00000000      46.48238014       1.55389671
       7.70000000      90.00000000     360.00000000      46.48242647       1.55389826
       7.80000000      90.00000000     360.00000000      46.48247280       1.55389981
       7.90000000      90.00000000     360.00000000      46.48251913       1.55390136
       8.00000000      90.00000000     360.00000000      46.48256547       1.55390291
       8.10000000      90.00000000     360.00000000      46.48261181       1.55390446
       8.20000000      90.00000000     360.00000000      46.48265816       1.55390601
       8.30000000      90.00000000     360.00000000      46.48270451       1.55390756
       8.40000000      90.00000000     360.00000000      46.48275086       1.55390910
       8.50000000      90.00000000     360.00000000      46.48279722       1.55391065
       8.60000000      90.00000000     360.00000000      46.48284359       1.55391220
       8.70000000      90.00000000     360.00000000      46.48288995       1.55391375
       8.80000000      90.00000000     360.00000000      46.48293633       1.55391530
       8.90000000      90.00000000     360.00000000      46.48298270       1.55391686
       9.00000000      90.00000000     360.00000000      46.48302908       1.55391841
       9.10000000      90.00000000     360.00000000      46.48307547       1.55391996
       9.20000000      90.00000000     360.00000000      46.48312186       1.55392151
       9.30000000      90.00000000     360.00000000      46.48316825       1.55392306
       9.40000000      90.00000000     360.00000000      46.48321465       1.55392461
       9.50000000      90.00000000     360.00000000      46.48326106       1.55392616
       9.60000000      90.00000000     360.00000000      46.48330746       1.55392771
       9.70000000      90.00000000     360.00000000      46.48335388       1.55392926
       9.80000000      90.00000000     360.00000000      46.48340029       1.55393082
       9.90000000      90.00000000     360.00000000      46.48344671       1.55393237
      10.00000000      90.00000000     360.00000000      46.48349314       1.55393392
      10.10000000      90.00000000     360.00000000      46.48353957       1.55393547
      10.20000000      90.00000000     360.00000000      46.48358600       1.55393702
      10.30000000      90.00000000     360.00000000      46.48363244       1.55393858
      10.40000000      90.00000000     360.00000000      46.48367888       1.55394013
      10.50000000      90.00000000     360.00000000      46.48372533       1.55394168
      10.60000000      90.00000000     360.00000000      46.48377178       1.55394323
      10.70000000      90.00000000     360.00000000      46.48381824       1.55394479
      10.80000000      90.00000000     360.00000000      46.48386470       1.55394634
      10.90000000      90.00000000     360.00000000      46.48391116       1.55394789
      11.00000000      90.00000000     360.00000000      46.48395763       1.55394945
      11.10000000      90.00000000     360.00000000      46.48400410       1.55395100
      11.20000000      90.00000000     360.00000000      46.48405058       1.55395255
      11.30000000      90.00000000     360.00000000      46.48409706       1.55395411
      11.40000000      90.00000000     360.00000000      46.48414355       1.55395566
      11.50000000      90.00000000     360.00000000      46.48419004       1.55395722
      11.60000000      90.00000000     360.00000000      46.48423654       1.55395877
      11.70000000      90.00000000     360.00000000      46.48428304       1.55396033
      11.80000000      90.00000000     360.00000000      46.48432954       1.55396188
      11.90000000      90.00000000     360.00000000      46.48437605       1.55396343
      12.00000000      90.00000000     360.00000000      46.48442256       1.55396499
      12.10000000      90.00000000     360.00000000      46.48446908       1.55396654
      12.20000000      90.00000000     360.00000000      46.48451560       1.55396810
      12.30000000      90.00000000     360.00000000      46.48456213       1.55396966
      12.40000000      90.00000000     360.00000000      46.48460866       1.55397121
      12.50000000      90.00000000     360.00000000      46.48465519       1.55397277
      12.60000000      90.00000000     360.00000000      46.48470173       1.55397432
      12.70000000      90.00000000     360.00000000      46.48474828       1.55397588
      12.80000000      90.00000000     360.00000000      46.48479483       1.55397743
      12.90000000      90.00000000     360.00000000      46.48484138       1.55397899
      13.00000000      90.00000000     360.00000000      46.48488794       1.55398055
      13.10000000      90.00000000     360.00000000      46.48493450       1.55398210
      13.20000000      90.00000000     360.00000000      46.48498106       1.55398366
      13.30000000      90.00000000     360.00000000      46.48502764       1.55398522
      13.40000000      90.00000000     360.00000000      46.48507421       1.55398677
      13.50000000      90.00000000     360.00000000      46.48512079       1.55398833
      13.60000000      90.00000000     360.00000000      46.48516737       1.55398989
      13.70000000      90.00000000     360.00000000      46.48521396       1.55399145
      13.80000000      90.00000000     360.00000000      46.48526056       1.55399300
      13.90000000      90.00000000     360.00000000      46.48530715       1.55399456
      14.00000000      90.00000000     360.00000000      46.48535375       1.55399612
      14.10000000      90.00000000     360.00000000      46.48540036       1.55399768
      14.20000000      90.00000000     360.00000000      46.48544697       1.55399924
      14.30000000      90.00000000     360.00000000      46.48549359       1.55400079
      14.40000000      90.00000000     360.00000000      46.48554021       1.55400235
      14.50000000      90.00000000     360.00000000      46.48558683       1.55400391
      14.60000000      90.00000000     360.00000000      46.48563346       1.55400547
      14.70000000      90.00000000     360.00000000      46.48568009       1.55400703
      14.80000000      90.00000000     360.00000000      46.48572673       1.55400859
      14.90000000      90.00000000     360.00000000      46.48577337       1.55401015
      15.00000000      90.00000000     360.00000000      46.48582002       1.55401171
      15.10000000      90.00000000     360.00000000      46.48586667       1.55401327
      15.20000000      90.00000000     360.00000000      46.48591332       1.55401483
      15.30000000      90.00000000     360.00000000      46.48595998       1.55401639
      15.40000000      90.00000000     360.00000000      46.48600665       1.55401795
      15.50000000      90.00000000     360.00000000      46.48605332       1.55401951
      15.60000000      90.00000000     360.00000000      46.48609999       1.55402107
      15.70000000      90.00000000     360.00000000      46.48614667       1.55402263
      15.80000000      90.00000000     360.00000000      46.48619335       1.55402419
      15.90000000      90.00000000     360.00000000      46.48624004       1.55402575
      16.00000000      90.00000000     360.00000000      46.48628673       1.55402731
      16.10000000      90.00000000     360.00000000      46.48633342       1.55402887
      16.20000000      90.00000000     360.00000000      46.48638012       1.55403043
      16.30000000      90.00000000     360.00000000      46.48642683       1.55403199
      16.40000000      90.00000000     360.00000000      46.48647354       1.55403355
      16.50000000      90.00000000     360.00000000      46.48652025       1.55403511
      16.60000000      90.00000000     360.00000000      46.48656697       1.55403668
      16.70000000      90.00000000     360.00000000      46.48661369       1.55403824
      16.80000000      90.00000000     360.00000000      46.48666042       1.55403980
      16.90000000      90.00000000     360.00000000      46.48670715       1.55404136
      17.00000000      90.00000000     360.00000000      46.48675388       1.55404293
      17.10000000      90.00000000     360.00000000      46.48680062       1.55404449
      17.20000000      90.00000000     360.00000000      46.48684737       1.55404605
      17.30000000      90.00000000     360.00000000      46.48689412       1.55404761
      17.40000000      90.00000000     360.00000000      46.48694087       1.55404918
      17.50000000      90.00000000     360.00000000      46.48698763       1.55405074
      17.60000000      90.00000000     360.00000000      46.48703439       1.55405230
      17.70000000      90.00000000     360.00000000      46.48708116       1.55405387
      17.80000000      90.00000000     360.00000000      46.48712793       1.55405543
      17.90000000      90.00000000     360.00000000      46.48717471       1.55405699
      18.00000000      90.00000000     360.00000000      46.48722149       1.55405856
      18.10000000      90.00000000     360.00000000      46.48726828       1.55406012
      18.20000000      90.00000000     360.00000000      46.48731507       1.55406169
      18.30000000      90.00000000     360.00000000      46.48736186       1.55406325
      18.40000000      90.00000000     360.00000000      46.48740866       1.55406481
      18.50000000      90.00000000     360.00000000      46.48745546       1.55406638
      18.60000000      90.00000000     360.00000000      46.48750227       1.55406794
      18.70000000      90.00000000     360.00000000      46.48754908       1.55406951
      18.80000000      90.00000000     360.00000000      46.48759590       1.55407107
      18.90000000      90.00000000     360.00000000      46.48764272       1.55407264
      19.00000000      90.00000000     360.00000000      46.48768955       1.55407420
      19.10000000      90.00000000     360.00000000      46.48773638       1.55407577
      19.20000000      90.00000000     360.00000000      46.48778321       1.55407734
      19.30000000      90.00000000     360.00000000      46.48783005       1.55407890
      19.40000000      90.00000000     360.00000000      46.48787690       1.55408047
      19.50000000      90.00000000     360.00000000      46.48792375       1.55408203
      19.60000000      90.00000000     360.00000000      46.48797060       1.55408360
      19.70000000      90.00000000     360.00000000      46.48801746       1.55408517
      19.80000000      90.00000000     360.00000000      46.48806432       1.55408673
      19.90000000      90.00000000     360.00000000      46.48811119       1.55408830
      20.00000000      90.00000000     360.00000000      46.48815806       1.55408987
      20.10000000      90.00000000     360.00000000      46.48820494       1.55409143
      20.20000000      90.00000000     360.00000000      46.48825182       1.55409300
      20.30000000      90.00000000     360.00000000      46.48829870       1.55409457
      20.40000000      90.00000000     360.00000000      46.48834559       1.55409614
      20.50000000      90.00000000     360.00000000      46.48839249       1.55409770
      20.60000000      90.00000000     360.00000000      46.48843939       1.55409927
      20.70000000      90.00000000     360.00000000      46.48848629       1.55410084
      20.80000000      90.00000000     360.00000000      46.48853320       1.55410241
      20.90000000      90.00000000     360.00000000      46.48858011       1.55410398
      21.00000000      90.00000000     360.00000000      46.48862703       1.55410554
      21.10000000      90.00000000     360.00000000      46.48867395       1.55410711
      21.20000000      90.00000000     360.00000000      46.48872087       1.55410868
      21.30000000      90.00000000     360.00000000      46.48876781       1.55411025
      21.40000000      90.00000000     360.00000000      46.48881474       1.55411182
      21.50000000      90.00000000     360.00000000      46.48886168       1.55411339
      21.60000000      90.00000000     360.00000000      46.48890862       1.55411496
      21.70000000      90.00000000     360.00000000      46.48895557       1.55411653
      21.80000000      90.00000000     360.00000000      46.48900253       1.55411810
      21.90000000      90.00000000     360.00000000      46.48904949       1.55411967
      22.00000000      90.00000000     360.00000000      46.48909645       1.55412124
      22.10000000      90.00000000     360.00000000      46.48914342       1.55412281
      22.20000000      90.00000000     360.00000000      46.48919039       1.55412438
      22.30000000      90.00000000     360.00000000      46.48923736       1.55412595
      22.40000000      90.00000000     360.00000000      46.48928435       1.55412752
      22.50000000      90.00000000     360.00000000      46.48933133       1.55412909
      22.60000000      90.00000000     360.00000000      46.48937832       1.55413066
      22.70000000      90.00000000     360.00000000      46.48942532       1.55413223
      22.80000000      90.00000000     360.00000000      46.48947232       1.55413380
      22.90000000      90.00000000     360.00000000      46.48951932       1.55413537
      23.00000000      90.00000000     360.00000000      46.48956633       1.55413694
