 # applied field (T), theta (degree), phi (degree), abs [muB/unitcell], abs [T]
       0.00000000       0.00000000       0.00000000      52.69230152       1.81311264
       0.10000000       0.34126308      45.00000000      52.69230276       1.81311269
       0.20000000       0.68252680      45.00000000      52.69230651       1.81311281
       0.30000000       1.08056894      45.00000000      52.69231354       1.81311306
       0.40000000       1.42183621      45.00000000      52.69232255       1.81311337
       0.50000000       1.76310610      45.00000000      52.69233407       1.81311376
       0.60000000       2.10437927      45.00000000      52.69234813       1.81311425
       0.70000000       2.44565634      45.00000000      52.69236472       1.81311482
       0.80000000       2.84371824      45.00000000      52.69238601       1.81311555
       0.90000000       3.18500594      45.00000000      52.69240801       1.81311631
       1.00000000       3.52629954      45.00000000      52.69243261       1.81311715
       1.10000000       3.86759968      45.00000000      52.69245984       1.81311809
       1.20000000       4.26569186      45.00000000      52.69249301       1.81311923
       1.30000000       4.60700832      45.00000000      52.69252586       1.81312036
       1.40000000       4.94833331      45.00000000      52.69256142       1.81312159
       1.50000000       5.28966744      45.00000000      52.69259973       1.81312290
       1.60000000       5.68780268      45.00000000      52.69264536       1.81312447
       1.70000000       6.02915882      45.00000000      52.69268959       1.81312600
       1.80000000       6.37052608      45.00000000      52.69273669       1.81312762
       1.90000000       6.76870255      45.00000000      52.69279225       1.81312953
       2.00000000       7.11009610      45.00000000      52.69284555       1.81313136
       2.10000000       7.45150275      45.00000000      52.69290185       1.81313330
       2.20000000       7.84972774      45.00000000      52.69296785       1.81313557
       2.30000000       8.19116494      45.00000000      52.69303067       1.81313773
       2.40000000       8.58942732      45.00000000      52.69310410       1.81314026
       2.50000000       8.93089796      45.00000000      52.69317368       1.81314265
       2.60000000       9.27238499      45.00000000      52.69324654       1.81314516
       2.70000000       9.67070807      45.00000000      52.69333143       1.81314808
       2.80000000      10.01223274      45.00000000      52.69341143       1.81315083
       2.90000000      10.41060149      45.00000000      52.69350449       1.81315404
       3.00000000      10.75216665      45.00000000      52.69359191       1.81315704
       3.10000000      11.15058439      45.00000000      52.69369348       1.81316054
       3.20000000      11.49219287      45.00000000      52.69378860       1.81316381
       3.30000000      11.89066287      45.00000000      52.69389903       1.81316761
       3.40000000      12.28916241      45.00000000      52.69401429       1.81317158
       3.50000000      12.63084301      45.00000000      52.69412178       1.81317528
       3.60000000      13.02939983      45.00000000      52.69424644       1.81317957
       3.70000000      13.42798884      45.00000000      52.69437624       1.81318403
       3.80000000      13.76974810      45.00000000      52.69449682       1.81318818
       3.90000000      14.16839930      45.00000000      52.69463658       1.81319299
       4.00000000      14.56708532      45.00000000      52.69478178       1.81319799
       4.10000000      14.96580707      45.00000000      52.69493253       1.81320317
       4.20000000      15.36456544      45.00000000      52.69508894       1.81320856
       4.30000000      15.76336133      45.00000000      52.69525111       1.81321414
       4.40000000      16.16219560      45.00000000      52.69541914       1.81321992
       4.50000000      16.56106914      45.00000000      52.69559314       1.81322591
       4.60000000      16.95998281      45.00000000      52.69577321       1.81323210
       4.70000000      17.35893745      45.00000000      52.69595945       1.81323851
       4.80000000      17.75793390      45.00000000      52.69615196       1.81324513
       4.90000000      18.15697301      45.00000000      52.69635082       1.81325198
       5.00000000      18.55605558      45.00000000      52.69655615       1.81325904
       5.10000000      19.01211996      45.00000000      52.69679203       1.81326716
       5.20000000      19.41129847      45.00000000      52.69701136       1.81327471
       5.30000000      19.86747474      45.00000000      52.69726324       1.81328337
       5.40000000      20.26675277      45.00000000      52.69749696       1.81329142
       5.50000000      20.72304499      45.00000000      52.69776525       1.81330065
       5.60000000      21.12242599      45.00000000      52.69801370       1.81330920
       5.70000000      21.57883801      45.00000000      52.69829877       1.81331901
       5.80000000      22.03531551      45.00000000      52.69859288       1.81332913
       5.90000000      22.49185950      45.00000000      52.69889609       1.81333956
       6.00000000      22.94847099      45.00000000      52.69920848       1.81335031
       6.10000000      23.40515094      45.00000000      52.69953012       1.81336138
       6.20000000      23.86190027      45.00000000      52.69986105       1.81337276
       6.30000000      24.37575486      45.00000000      52.70023738       1.81338571
       6.40000000      24.83265469      45.00000000      52.70058808       1.81339778
       6.50000000      25.34668100      45.00000000      52.70098653       1.81341149
       6.60000000      25.80373502      45.00000000      52.70135706       1.81342424
       6.70000000      26.31793701      45.00000000      52.70177763       1.81343871
       6.80000000      26.83223354      45.00000000      52.70220982       1.81345358
       6.90000000      27.40372256      45.00000000      52.70269681       1.81347034
       7.00000000      27.91822177      45.00000000      52.70315325       1.81348605
       7.10000000      28.48993833      45.00000000      52.70366680       1.81350372
       7.20000000      29.06177616      45.00000000      52.70419406       1.81352186
       7.30000000      29.63373609      45.00000000      52.70473480       1.81354047
       7.40000000      30.20581882      45.00000000      52.70528877       1.81355953
       7.50000000      30.83519617      45.00000000      52.70590661       1.81358079
       7.60000000      31.46472378      45.00000000      52.70653955       1.81360257
       7.70000000      32.09440205      45.00000000      52.70718708       1.81362485
       7.80000000      32.78144537      45.00000000      52.70790348       1.81364950
       7.90000000      33.46866857      45.00000000      52.70863573       1.81367469
       8.00000000      34.21331718      45.00000000      52.70944031       1.81370238
       8.10000000      34.95817607      45.00000000      52.71026120       1.81373063
       8.20000000      35.76052373      45.00000000      52.71115683       1.81376144
       8.30000000      36.62041045      45.00000000      52.71212893       1.81379489
       8.40000000      37.53788849      45.00000000      52.71317852       1.81383101
       8.50000000      38.51301128      45.00000000      52.71430572       1.81386980
       8.60000000      39.60319333      45.00000000      52.71557287       1.81391340
       8.70000000      40.80855575      45.00000000      52.71697884       1.81396178
       8.80000000      90.00000000      45.00000000      52.74056014       1.81477320
       8.90000000      90.00000000      45.00000000      52.74060372       1.81477470
       9.00000000      90.00000000      45.00000000      52.74064730       1.81477619
       9.10000000      90.00000000      45.00000000      52.74069089       1.81477769
       9.20000000      90.00000000      45.00000000      52.74073448       1.81477919
       9.30000000      90.00000000      45.00000000      52.74077808       1.81478069
       9.40000000      90.00000000      45.00000000      52.74082168       1.81478220
       9.50000000      90.00000000      45.00000000      52.74086529       1.81478370
       9.60000000      90.00000000      45.00000000      52.74090891       1.81478520
       9.70000000      90.00000000      45.00000000      52.74095253       1.81478670
       9.80000000      90.00000000      45.00000000      52.74099615       1.81478820
       9.90000000      90.00000000      45.00000000      52.74103978       1.81478970
      10.00000000      90.00000000      45.00000000      52.74108342       1.81479120
      10.10000000      90.00000000      45.00000000      52.74112706       1.81479270
      10.20000000      90.00000000      45.00000000      52.74117070       1.81479420
      10.30000000      90.00000000      45.00000000      52.74121435       1.81479571
      10.40000000      90.00000000      45.00000000      52.74125801       1.81479721
      10.50000000      90.00000000      45.00000000      52.74130167       1.81479871
      10.60000000      90.00000000      45.00000000      52.74134534       1.81480021
      10.70000000      90.00000000      45.00000000      52.74138901       1.81480172
      10.80000000      90.00000000      45.00000000      52.74143269       1.81480322
      10.90000000      90.00000000      45.00000000      52.74147637       1.81480472
      11.00000000      90.00000000      45.00000000      52.74152006       1.81480623
      11.10000000      90.00000000      45.00000000      52.74156375       1.81480773
      11.20000000      90.00000000      45.00000000      52.74160745       1.81480923
      11.30000000      90.00000000      45.00000000      52.74165116       1.81481074
      11.40000000      90.00000000      45.00000000      52.74169487       1.81481224
      11.50000000      90.00000000      45.00000000      52.74173858       1.81481374
      11.60000000      90.00000000      45.00000000      52.74178230       1.81481525
      11.70000000      90.00000000      45.00000000      52.74182603       1.81481675
      11.80000000      90.00000000      45.00000000      52.74186976       1.81481826
      11.90000000      90.00000000      45.00000000      52.74191350       1.81481976
      12.00000000      90.00000000      45.00000000      52.74195724       1.81482127
      12.10000000      90.00000000      45.00000000      52.74200099       1.81482277
      12.20000000      90.00000000      45.00000000      52.74204474       1.81482428
      12.30000000      90.00000000      45.00000000      52.74208850       1.81482579
      12.40000000      90.00000000      45.00000000      52.74213226       1.81482729
      12.50000000      90.00000000      45.00000000      52.74217603       1.81482880
      12.60000000      90.00000000      45.00000000      52.74221980       1.81483030
      12.70000000      90.00000000      45.00000000      52.74226358       1.81483181
      12.80000000      90.00000000      45.00000000      52.74230737       1.81483332
      12.90000000      90.00000000      45.00000000      52.74235116       1.81483482
      13.00000000      90.00000000      45.00000000      52.74239495       1.81483633
      13.10000000      90.00000000      45.00000000      52.74243875       1.81483784
      13.20000000      90.00000000      45.00000000      52.74248256       1.81483934
      13.30000000      90.00000000      45.00000000      52.74252637       1.81484085
      13.40000000      90.00000000      45.00000000      52.74257019       1.81484236
      13.50000000      90.00000000      45.00000000      52.74261401       1.81484387
      13.60000000      90.00000000      45.00000000      52.74265784       1.81484538
      13.70000000      90.00000000      45.00000000      52.74270167       1.81484688
      13.80000000      90.00000000      45.00000000      52.74274551       1.81484839
      13.90000000      90.00000000      45.00000000      52.74278935       1.81484990
      14.00000000      90.00000000      45.00000000      52.74283320       1.81485141
      14.10000000      90.00000000      45.00000000      52.74287706       1.81485292
      14.20000000      90.00000000      45.00000000      52.74292091       1.81485443
      14.30000000      90.00000000      45.00000000      52.74296478       1.81485594
      14.40000000      90.00000000      45.00000000      52.74300865       1.81485745
      14.50000000      90.00000000      45.00000000      52.74305253       1.81485896
      14.60000000      90.00000000      45.00000000      52.74309641       1.81486047
      14.70000000      90.00000000      45.00000000      52.74314029       1.81486198
      14.80000000      90.00000000      45.00000000      52.74318419       1.81486349
      14.90000000      90.00000000      45.00000000      52.74322808       1.81486500
      15.00000000      90.00000000      45.00000000      52.74327199       1.81486651
      15.10000000      90.00000000      45.00000000      52.74331589       1.81486802
      15.20000000      90.00000000      45.00000000      52.74335981       1.81486953
      15.30000000      90.00000000      45.00000000      52.74340373       1.81487104
      15.40000000      90.00000000      45.00000000      52.74344765       1.81487255
      15.50000000      90.00000000      45.00000000      52.74349158       1.81487406
      15.60000000      90.00000000      45.00000000      52.74353552       1.81487558
      15.70000000      90.00000000      45.00000000      52.74357946       1.81487709
      15.80000000      90.00000000      45.00000000      52.74362340       1.81487860
      15.90000000      90.00000000      45.00000000      52.74366735       1.81488011
      16.00000000      90.00000000      45.00000000      52.74371131       1.81488163
      16.10000000      90.00000000      45.00000000      52.74375527       1.81488314
      16.20000000      90.00000000      45.00000000      52.74379924       1.81488465
      16.30000000      90.00000000      45.00000000      52.74384321       1.81488616
      16.40000000      90.00000000      45.00000000      52.74388719       1.81488768
      16.50000000      90.00000000      45.00000000      52.74393117       1.81488919
      16.60000000      90.00000000      45.00000000      52.74397516       1.81489070
      16.70000000      90.00000000      45.00000000      52.74401916       1.81489222
      16.80000000      90.00000000      45.00000000      52.74406316       1.81489373
      16.90000000      90.00000000      45.00000000      52.74410716       1.81489525
      17.00000000      90.00000000      45.00000000      52.74415117       1.81489676
      17.10000000      90.00000000      45.00000000      52.74419519       1.81489828
      17.20000000      90.00000000      45.00000000      52.74423921       1.81489979
      17.30000000      90.00000000      45.00000000      52.74428324       1.81490131
      17.40000000      90.00000000      45.00000000      52.74432727       1.81490282
      17.50000000      90.00000000      45.00000000      52.74437131       1.81490434
      17.60000000      90.00000000      45.00000000      52.74441535       1.81490585
      17.70000000      90.00000000      45.00000000      52.74445940       1.81490737
      17.80000000      90.00000000      45.00000000      52.74450345       1.81490888
      17.90000000      90.00000000      45.00000000      52.74454751       1.81491040
      18.00000000      90.00000000      45.00000000      52.74459157       1.81491191
      18.10000000      90.00000000      45.00000000      52.74463564       1.81491343
      18.20000000      90.00000000      45.00000000      52.74467972       1.81491495
      18.30000000      90.00000000      45.00000000      52.74472380       1.81491646
      18.40000000      90.00000000      45.00000000      52.74476789       1.81491798
      18.50000000      90.00000000      45.00000000      52.74481198       1.81491950
      18.60000000      90.00000000      45.00000000      52.74485607       1.81492102
      18.70000000      90.00000000      45.00000000      52.74490018       1.81492253
      18.80000000      90.00000000      45.00000000      52.74494428       1.81492405
      18.90000000      90.00000000      45.00000000      52.74498840       1.81492557
      19.00000000      90.00000000      45.00000000      52.74503252       1.81492709
      19.10000000      90.00000000      45.00000000      52.74507664       1.81492861
      19.20000000      90.00000000      45.00000000      52.74512077       1.81493012
      19.30000000      90.00000000      45.00000000      52.74516490       1.81493164
      19.40000000      90.00000000      45.00000000      52.74520904       1.81493316
      19.50000000      90.00000000      45.00000000      52.74525319       1.81493468
      19.60000000      90.00000000      45.00000000      52.74529734       1.81493620
      19.70000000      90.00000000      45.00000000      52.74534150       1.81493772
      19.80000000      90.00000000      45.00000000      52.74538566       1.81493924
      19.90000000      90.00000000      45.00000000      52.74542983       1.81494076
      20.00000000      90.00000000      45.00000000      52.74547400       1.81494228
      20.10000000      90.00000000      45.00000000      52.74551818       1.81494380
      20.20000000      90.00000000      45.00000000      52.74556236       1.81494532
      20.30000000      90.00000000      45.00000000      52.74560655       1.81494684
      20.40000000      90.00000000      45.00000000      52.74565074       1.81494836
      20.50000000      90.00000000      45.00000000      52.74569494       1.81494988
      20.60000000      90.00000000      45.00000000      52.74573915       1.81495140
      20.70000000      90.00000000      45.00000000      52.74578336       1.81495292
      20.80000000      90.00000000      45.00000000      52.74582758       1.81495444
      20.90000000      90.00000000      45.00000000      52.74587180       1.81495597
      21.00000000      90.00000000      45.00000000      52.74591603       1.81495749
      21.10000000      90.00000000      45.00000000      52.74596026       1.81495901
      21.20000000      90.00000000      45.00000000      52.74600450       1.81496053
      21.30000000      90.00000000      45.00000000      52.74604874       1.81496206
      21.40000000      90.00000000      45.00000000      52.74609299       1.81496358
      21.50000000      90.00000000      45.00000000      52.74613724       1.81496510
      21.60000000      90.00000000      45.00000000      52.74618150       1.81496662
      21.70000000      90.00000000      45.00000000      52.74622577       1.81496815
      21.80000000      90.00000000      45.00000000      52.74627004       1.81496967
      21.90000000      90.00000000      45.00000000      52.74631431       1.81497119
      22.00000000      90.00000000      45.00000000      52.74635859       1.81497272
      22.10000000      90.00000000      45.00000000      52.74640288       1.81497424
      22.20000000      90.00000000      45.00000000      52.74644717       1.81497576
      22.30000000      90.00000000      45.00000000      52.74649147       1.81497729
      22.40000000      90.00000000      45.00000000      52.74653577       1.81497881
      22.50000000      90.00000000      45.00000000      52.74658008       1.81498034
      22.60000000      90.00000000      45.00000000      52.74662440       1.81498186
      22.70000000      90.00000000      45.00000000      52.74666872       1.81498339
      22.80000000      90.00000000      45.00000000      52.74671304       1.81498491
      22.90000000      90.00000000      45.00000000      52.74675737       1.81498644
      23.00000000      90.00000000      45.00000000      52.74680171       1.81498796
