 # applied field (T), theta (degree), phi (degree), abs for RE 3-4
     0.00000     0.00000     0.00000     4.71935     0.00000     0.00000     4.71935
     0.10000     0.11847    53.06935     4.71935     0.11847    36.93065     4.71935
     0.20000     0.27547    53.07338     4.71935     0.27547    36.92662     4.71935
     0.30000     0.39394    53.07204     4.71935     0.39394    36.92796     4.71935
     0.40000     0.55095    53.07308     4.71934     0.55095    36.92692     4.71934
     0.50000     0.66943    53.07217     4.71934     0.66943    36.92783     4.71934
     0.60000     0.78792    53.07143     4.71934     0.78792    36.92857     4.71934
     0.70000     0.94495    53.07179     4.71933     0.94495    36.92821     4.71933
     0.80000     1.06346    53.07108     4.71933     1.06346    36.92892     4.71933
     0.90000     1.22053    53.07112     4.71932     1.22053    36.92888     4.71932
     1.00000     1.33906    53.07039     4.71931     1.33906    36.92961     4.71931
     1.10000     1.45761    53.06968     4.71931     1.45761    36.93032     4.71931
     1.20000     1.61473    53.06945     4.71930     1.61473    36.93055     4.71930
     1.30000     1.73331    53.06868     4.71929     1.73331    36.93132     4.71929
     1.40000     1.85190    53.06791     4.71928     1.85190    36.93209     4.71928
     1.50000     2.00909    53.06744     4.71927     2.00909    36.93256     4.71927
     1.60000     2.12773    53.06660     4.71926     2.12773    36.93340     4.71926
     1.70000     2.28498    53.06597     4.71924     2.28498    36.93403     4.71924
     1.80000     2.40367    53.06506     4.71923     2.40367    36.93494     4.71923
     1.90000     2.52238    53.06413     4.71922     2.52238    36.93587     4.71922
     2.00000     2.67973    53.06330     4.71920     2.67973    36.93670     4.71920
     2.10000     2.79850    53.06229     4.71919     2.79850    36.93771     4.71919
     2.20000     2.95593    53.06132     4.71917     2.95593    36.93868     4.71917
     2.30000     3.07476    53.06023     4.71916     3.07476    36.93977     4.71916
     2.40000     3.19362    53.05912     4.71914     3.19362    36.94088     4.71914
     2.50000     3.35117    53.05796     4.71912     3.35117    36.94204     4.71912
     2.60000     3.47010    53.05677     4.71910     3.47010    36.94323     4.71910
     2.70000     3.62776    53.05547     4.71908     3.62776    36.94453     4.71908
     2.80000     3.74677    53.05420     4.71906     3.74677    36.94580     4.71906
     2.90000     3.86581    53.05290     4.71905     3.86581    36.94710     4.71905
     3.00000     4.02362    53.05142     4.71902     4.02362    36.94858     4.71902
     3.10000     4.14275    53.05004     4.71900     4.14275    36.94996     4.71900
     3.20000     4.30068    53.04843     4.71897     4.30068    36.95157     4.71897
     3.30000     4.41991    53.04696     4.71895     4.41991    36.95304     4.71895
     3.40000     4.53917    53.04546     4.71893     4.53917    36.95454     4.71893
     3.50000     4.69728    53.04368     4.71890     4.69728    36.95632     4.71890
     3.60000     4.81665    53.04209     4.71888     4.81665    36.95791     4.71888
     3.70000     4.93606    53.04046     4.71886     4.93606    36.95954     4.71886
     3.80000     5.09437    53.03850     4.71882     5.09437    36.96150     4.71882
     3.90000     5.21389    53.03679     4.71880     5.21389    36.96321     4.71880
     4.00000     5.37235    53.03471     4.71876     5.37235    36.96529     4.71876
     4.10000     5.49199    53.03291     4.71874     5.49199    36.96709     4.71874
     4.20000     5.61167    53.03108     4.71871     5.61167    36.96892     4.71871
     4.30000     5.77036    53.02882     4.71868     5.77036    36.97118     4.71868
     4.40000     5.89017    53.02690     4.71865     5.89017    36.97310     4.71865
     4.50000     6.01004    53.02494     4.71862     6.01004    36.97506     4.71862
     4.60000     6.16897    53.02250     4.71858     6.16897    36.97750     4.71858
     4.70000     6.28897    53.02045     4.71855     6.28897    36.97955     4.71855
     4.80000     6.44809    53.01789     4.71851     6.44809    36.98211     4.71851
     4.90000     6.56822    53.01575     4.71848     6.56822    36.98425     4.71848
     5.00000     6.68842    53.01358     4.71844     6.68842    36.98642     4.71844
     5.10000     6.84781    53.01084     4.71840     6.84781    36.98916     4.71840
     5.20000     6.96816    53.00857     4.71837     6.96816    36.99143     4.71837
     5.30000     7.08857    53.00627     4.71833     7.08857    36.99373     4.71833
     5.40000     7.24824    53.00335     4.71829     7.24824    36.99665     4.71829
     5.50000     7.36881    53.00096     4.71825     7.36881    36.99904     4.71825
     5.60000     7.52870    52.99791     4.71821     7.52870    37.00209     4.71821
     5.70000     7.64943    52.99542     4.71817     7.64943    37.00458     4.71817
     5.80000     7.77023    52.99290     4.71813     7.77023    37.00710     4.71813
     5.90000     7.93043    52.98967     4.71808     7.93043    37.01033     4.71808
     6.00000     8.05140    52.98705     4.71804     8.05140    37.01295     4.71804
     6.10000     8.17245    52.98440     4.71800     8.17245    37.01560     4.71800
     6.20000     8.33298    52.98099     4.71795     8.33298    37.01901     4.71795
     6.30000     8.45421    52.97824     4.71791     8.45421    37.02176     4.71791
     6.40000     8.61499    52.97470     4.71786     8.61499    37.02530     4.71786
     6.50000     8.73640    52.97186     4.71781     8.73640    37.02814     4.71781
     6.60000     8.85790    52.96897     4.71777     8.85790    37.03103     4.71777
     6.70000     9.01903    52.96525     4.71771     9.01903    37.03475     4.71771
     6.80000     9.14072    52.96227     4.71767     9.14072    37.03773     4.71767
     6.90000     9.26249    52.95925     4.71763     9.26249    37.04075     4.71763
     7.00000     9.42401    52.95534     4.71757     9.42401    37.04466     4.71757
     7.10000     9.54599    52.95222     4.71752     9.54599    37.04778     4.71752
     7.20000     9.66805    52.94906     4.71747     9.66805    37.05094     4.71747
     7.30000     9.82996    52.94497     4.71741     9.82996    37.05503     4.71741
     7.40000     9.95223    52.94171     4.71736     9.95223    37.05829     4.71736
     7.50000    10.07460    52.93841     4.71731    10.07460    37.06159     4.71731
     7.60000    10.23692    52.93414     4.71725    10.23692    37.06586     4.71725
     7.70000    10.35951    52.93074     4.71720    10.35951    37.06926     4.71720
     7.80000    10.52212    52.92633     4.71713    10.52212    37.07367     4.71713
     7.90000    10.64494    52.92283     4.71708    10.64494    37.07717     4.71708
     8.00000    10.76785    52.91929     4.71703    10.76785    37.08071     4.71703
     8.10000    10.93090    52.91469     4.71696    10.93090    37.08531     4.71696
     8.20000    11.05405    52.91104     4.71691    11.05405    37.08896     4.71691
     8.30000    11.17730    52.90736     4.71685    11.17730    37.09264     4.71685
     8.40000    11.34081    52.90256     4.71678    11.34081    37.09744     4.71678
     8.50000    11.46430    52.89878     4.71673    11.46430    37.10122     4.71673
     8.60000    11.58791    52.89495     4.71667    11.58791    37.10505     4.71667
     8.70000    11.75188    52.88996     4.71660    11.75188    37.11004     4.71660
     8.80000    11.87573    52.88603     4.71654    11.87573    37.11397     4.71654
     8.90000    11.99970    52.88205     4.71648    11.99970    37.11795     4.71648
     9.00000    12.16416    52.87687     4.71641    12.16416    37.12313     4.71641
     9.10000    12.28838    52.87279     4.71635    12.28838    37.12721     4.71635
     9.20000    12.41272    52.86866     4.71629    12.41272    37.13134     4.71629
     9.30000    12.57769    52.86328     4.71621    12.57769    37.13672     4.71621
     9.40000    12.70229    52.85905     4.71615    12.70229    37.14095     4.71615
     9.50000    12.82702    52.85477     4.71608    12.82702    37.14523     4.71608
     9.60000    12.99250    52.84919     4.71600    12.99250    37.15081     4.71600
     9.70000    13.11750    52.84481     4.71594    13.11750    37.15519     4.71594
     9.80000    13.24263    52.84038     4.71587    13.24263    37.15962     4.71587
     9.90000    13.40865    52.83459     4.71579    13.40865    37.16541     4.71579
    10.00000    13.53406    52.83006     4.71572    13.53406    37.16994     4.71572
    10.10000    13.65959    52.82548     4.71566    13.65959    37.17452     4.71566
    10.20000    13.82616    52.81948     4.71557    13.82616    37.18052     4.71557
    10.30000    13.95199    52.81479     4.71550    13.95199    37.18521     4.71550
    10.40000    14.07795    52.81006     4.71544    14.07795    37.18994     4.71544
    10.50000    14.20404    52.80527     4.71537    14.20404    37.19473     4.71537
    10.60000    14.37135    52.79901     4.71528    14.37135    37.20099     4.71528
    10.70000    14.49775    52.79412     4.71521    14.49775    37.20588     4.71521
    10.80000    14.62427    52.78917     4.71514    14.62427    37.21083     4.71514
    10.90000    14.79218    52.78270     4.71504    14.79218    37.21730     4.71504
    11.00000    14.91902    52.77765     4.71497    14.91902    37.22235     4.71497
    11.10000    15.04600    52.77255     4.71490    15.04600    37.22745     4.71490
    11.20000    15.21451    52.76586     4.71480    15.21451    37.23414     4.71480
    11.30000    15.34181    52.76064     4.71473    15.34181    37.23936     4.71473
    11.40000    15.46926    52.75538     4.71465    15.46926    37.24462     4.71465
    11.50000    15.63839    52.74848     4.71456    15.63839    37.25152     4.71456
    11.60000    15.76616    52.74310     4.71448    15.76616    37.25690     4.71448
    11.70000    15.89408    52.73768     4.71440    15.89408    37.26232     4.71440
    11.80000    16.02215    52.73220     4.71433    16.02215    37.26780     4.71433
    11.90000    16.19211    52.72501     4.71422    16.19211    37.27499     4.71422
    12.00000    16.32052    52.71942     4.71414    16.32052    37.28058     4.71414
    12.10000    16.44908    52.71378     4.71407    16.44908    37.28622     4.71407
    12.20000    16.61970    52.70637     4.71396    16.61970    37.29363     4.71396
    12.30000    16.74861    52.70061     4.71388    16.74861    37.29939     4.71388
    12.40000    16.87768    52.69480     4.71380    16.87768    37.30520     4.71380
    12.50000    17.00689    52.68894     4.71372    17.00689    37.31106     4.71372
    12.60000    17.17840    52.68124     4.71361    17.17840    37.31876     4.71361
    12.70000    17.30798    52.67526     4.71353    17.30798    37.32474     4.71353
    12.80000    17.43772    52.66923     4.71344    17.43772    37.33077     4.71344
    12.90000    17.60992    52.66130     4.71333    17.60992    37.33870     4.71333
    13.00000    17.74003    52.65515     4.71324    17.74003    37.34485     4.71324
    13.10000    17.87030    52.64895     4.71316    17.87030    37.35105     4.71316
    13.20000    18.00073    52.64269     4.71307    18.00073    37.35731     4.71307
    13.30000    18.17387    52.63446     4.71296    18.17387    37.36554     4.71296
    13.40000    18.30468    52.62809     4.71287    18.30468    37.37191     4.71287
    13.50000    18.43566    52.62166     4.71278    18.43566    37.37834     4.71278
    13.60000    18.56681    52.61517     4.71269    18.56681    37.38483     4.71269
    13.70000    18.74090    52.60664     4.71257    18.74090    37.39336     4.71257
    13.80000    18.87244    52.60003     4.71248    18.87244    37.39997     4.71248
    13.90000    19.00415    52.59337     4.71239    19.00415    37.40663     4.71239
    14.00000    19.13604    52.58666     4.71230    19.13604    37.41334     4.71230
    14.10000    19.31112    52.57781     4.71218    19.31112    37.42219     4.71218
    14.20000    19.44340    52.57097     4.71208    19.44340    37.42903     4.71208
    14.30000    19.57587    52.56408     4.71199    19.57587    37.43592     4.71199
    14.40000    19.70851    52.55713     4.71189    19.70851    37.44287     4.71189
    14.50000    19.88460    52.54797     4.71177    19.88460    37.45203     4.71177
    14.60000    20.01766    52.54089     4.71167    20.01766    37.45911     4.71167
    14.70000    20.15089    52.53376     4.71157    20.15089    37.46624     4.71157
    14.80000    20.28431    52.52657     4.71148    20.28431    37.47343     4.71148
    14.90000    20.46144    52.51710     4.71135    20.46144    37.48290     4.71135
    15.00000    20.59529    52.50978     4.71125    20.59529    37.49022     4.71125
    15.10000    20.72932    52.50241     4.71115    20.72932    37.49759     4.71115
    15.20000    20.86353    52.49497     4.71105    20.86353    37.50503     4.71105
    15.30000    20.99794    52.48749     4.71095    20.99794    37.51251     4.71095
    15.40000    21.17639    52.47762     4.71081    21.17639    37.52238     4.71081
    15.50000    21.31123    52.47000     4.71071    21.31123    37.53000     4.71071
    15.60000    21.44626    52.46232     4.71061    21.44626    37.53768     4.71061
    15.70000    21.58149    52.45459     4.71051    21.58149    37.54541     4.71051
    15.80000    21.71691    52.44680     4.71040    21.71691    37.55320     4.71040
    15.90000    21.89672    52.43653     4.71026    21.89672    37.56347     4.71026
    16.00000    22.03259    52.42860     4.71016    22.03259    37.57140     4.71016
    16.10000    22.16866    52.42062     4.71005    22.16866    37.57938     4.71005
    16.20000    22.30493    52.41257     4.70994    22.30493    37.58743     4.70994
    16.30000    22.44140    52.40447     4.70984    22.44140    37.59553     4.70984
    16.40000    22.62261    52.39379     4.70969    22.62261    37.60621     4.70969
    16.50000    22.75954    52.38556     4.70958    22.75954    37.61444     4.70958
    16.60000    22.89668    52.37726     4.70947    22.89668    37.62274     4.70947
    16.70000    23.03402    52.36891     4.70936    23.03402    37.63109     4.70936
    16.80000    23.17156    52.36049     4.70925    23.17156    37.63951     4.70925
    16.90000    23.35422    52.34939     4.70910    23.35422    37.65061     4.70910
    17.00000    23.49224    52.34084     4.70899    23.49224    37.65916     4.70899
    17.10000    23.63047    52.33223     4.70888    23.63047    37.66777     4.70888
    17.20000    23.76892    52.32356     4.70876    23.76892    37.67644     4.70876
    17.30000    23.90757    52.31482     4.70865    23.90757    37.68518     4.70865
    17.40000    24.04644    52.30603     4.70853    24.04644    37.69397     4.70853
    17.50000    24.23086    52.29443     4.70838    24.23086    37.70557     4.70838
    17.60000    24.37022    52.28550     4.70826    24.37022    37.71450     4.70826
    17.70000    24.50980    52.27650     4.70815    24.50980    37.72350     4.70815
    17.80000    24.64959    52.26744     4.70803    24.64959    37.73256     4.70803
    17.90000    24.78960    52.25833     4.70791    24.78960    37.74167     4.70791
    18.00000    24.92983    52.24915     4.70779    24.92983    37.75085     4.70779
    18.10000    25.11608    52.23704     4.70763    25.11608    37.76296     4.70763
    18.20000    25.25682    52.22771     4.70751    25.25682    37.77229     4.70751
    18.30000    25.39779    52.21833     4.70739    25.39779    37.78167     4.70739
    18.40000    25.53898    52.20888     4.70727    25.53898    37.79112     4.70727
    18.50000    25.68039    52.19938     4.70714    25.68039    37.80062     4.70714
    18.60000    25.82203    52.18981     4.70702    25.82203    37.81019     4.70702
    18.70000    25.96389    52.18017     4.70689    25.96389    37.81983     4.70689
    18.80000    26.10599    52.17048     4.70677    26.10599    37.82952     4.70677
    18.90000    26.29473    52.15768     4.70660    26.29473    37.84232     4.70660
    19.00000    26.43735    52.14784     4.70648    26.43735    37.85216     4.70648
    19.10000    26.58021    52.13793     4.70635    26.58021    37.86207     4.70635
    19.20000    26.72331    52.12796     4.70622    26.72331    37.87204     4.70622
    19.30000    26.86663    52.11793     4.70609    26.86663    37.88207     4.70609
    19.40000    27.01019    52.10784     4.70596    27.01019    37.89216     4.70596
    19.50000    27.15399    52.09768     4.70583    27.15399    37.90232     4.70583
    19.60000    27.29802    52.08746     4.70570    27.29802    37.91254     4.70570
    19.70000    27.44229    52.07717     4.70557    27.44229    37.92283     4.70557
    19.80000    27.63394    52.06359     4.70540    27.63394    37.93641     4.70540
    19.90000    27.77877    52.05315     4.70526    27.77877    37.94685     4.70526
    20.00000    27.92384    52.04265     4.70513    27.92384    37.95735     4.70513
    20.10000    28.06916    52.03209     4.70499    28.06916    37.96791     4.70499
    20.20000    28.21472    52.02146     4.70486    28.21472    37.97854     4.70486
    20.30000    28.36052    52.01077     4.70472    28.36052    37.98923     4.70472
    20.40000    28.50657    52.00001     4.70459    28.50657    37.99999     4.70459
    20.50000    28.65287    51.98919     4.70445    28.65287    38.01081     4.70445
    20.60000    28.79941    51.97830     4.70431    28.79941    38.02170     4.70431
    20.70000    28.94621    51.96735     4.70417    28.94621    38.03265     4.70417
    20.80000    29.09326    51.95633     4.70403    29.09326    38.04367     4.70403
    20.90000    29.24055    51.94525     4.70389    29.24055    38.05475     4.70389
    21.00000    29.38810    51.93410     4.70375    29.38810    38.06590     4.70375
    21.10000    29.58415    51.91937     4.70357    29.58415    38.08063     4.70357
    21.20000    29.73229    51.90807     4.70342    29.73229    38.09193     4.70342
    21.30000    29.88070    51.89670     4.70328    29.88070    38.10330     4.70328
    21.40000    30.02936    51.88527     4.70314    30.02936    38.11473     4.70314
    21.50000    30.17828    51.87377     4.70299    30.17828    38.12623     4.70299
    21.60000    30.32746    51.86221     4.70285    30.32746    38.13779     4.70285
    21.70000    30.47690    51.85058     4.70270    30.47690    38.14942     4.70270
    21.80000    30.62660    51.83888     4.70255    30.62660    38.16112     4.70255
    21.90000    30.77657    51.82712     4.70240    30.77657    38.17288     4.70240
    22.00000    30.92681    51.81529     4.70226    30.92681    38.18471     4.70226
    22.10000    31.07731    51.80340     4.70211    31.07731    38.19660     4.70211
    22.20000    31.22807    51.79143     4.70196    31.22807    38.20857     4.70196
    22.30000    31.37911    51.77941     4.70181    31.37911    38.22059     4.70181
    22.40000    31.53042    51.76731     4.70166    31.53042    38.23269     4.70166
    22.50000    31.68199    51.75515     4.70150    31.68199    38.24485     4.70150
    22.60000    31.83384    51.74293     4.70135    31.83384    38.25707     4.70135
    22.70000    31.98597    51.73064     4.70120    31.98597    38.26936     4.70120
    22.80000    32.13836    51.71828     4.70104    32.13836    38.28172     4.70104
    22.90000    32.29104    51.70585     4.70089    32.29104    38.29415     4.70089
    23.00000    32.44399    51.69336     4.70073    32.44399    38.30664     4.70073
    23.10000    32.59722    51.68080     4.70058    32.59722    38.31920     4.70058
    23.20000    32.75072    51.66818     4.70042    32.75072    38.33182     4.70042
    23.30000    32.90451    51.65548     4.70026    32.90451    38.34452     4.70026
