 # applied field (T), theta (degree), phi (degree), abs for RE 3-4
     0.00000     0.40003   135.00000     3.45548     0.40003    45.00000     3.45548
     0.10000     0.77372    19.43772     3.45571     1.33162    13.40199     3.45568
     0.20000     1.75812     7.58582     3.45581     2.33187     8.24693     3.45576
     0.30000     2.76439     4.28781     3.45578     3.33973     6.19473     3.45571
     0.40000     3.77586     2.75127     3.45560     4.35012     5.09542     3.45553
     0.50000     4.84326     1.82704     3.45526     5.41501     4.38236     3.45520
     0.60000     5.85946     1.26019     3.45479     6.42789     3.92425     3.45477
     0.70000     6.87744     0.86017     3.45416     7.44176     3.59124     3.45421
     0.80000     7.95072     0.54907     3.45335     8.50996     3.32684     3.45349
     0.90000     9.02598     0.31127     3.45236     9.57940     3.12174     3.45264
     1.00000    10.04954     0.13187     3.45127    10.59677     2.96549     3.45172
     1.10000    11.12890   359.97807     3.44996    11.66898     2.83075     3.45063
     1.20000    12.26451   359.84509     3.44840    12.79640     2.71385     3.44935
     1.30000    13.34858   359.73889     3.44674    13.87206     2.62041     3.44802
     1.40000    14.48936   359.64390     3.44481    15.00340     2.53696     3.44650
     1.50000    15.63294   359.56221     3.44271    16.13695     2.46542     3.44486
     1.60000    16.77945   359.49109     3.44043    17.27286     2.40347     3.44312
     1.70000    17.98367   359.42575     3.43785    18.46539     2.34693     3.44118
     1.80000    19.19131   359.36804     3.43508    19.66079     2.29743     3.43913
     1.90000    20.40251   359.31662     3.43212    20.85918     2.25374     3.43699
     2.00000    21.67253   359.26845     3.42885    22.11523     2.21329     3.43464
     2.10000    22.94666   359.22504     3.42539    23.37479     2.17730     3.43221
     2.20000    24.28055   359.18403     3.42160    24.69285     2.14378     3.42958
     2.30000    25.67490   359.14522     3.41745    26.07000     2.11256     3.42675
     2.40000    27.07447   359.10979     3.41313    27.45161     2.08454     3.42385
     2.50000    28.53557   359.07598     3.40847    28.89317     2.05829     3.42077
     2.60000    30.11541   359.04251     3.40327    30.45096     2.03284     3.41739
     2.70000    31.70217   359.01163     3.39792    32.01452     2.00984     3.41396
     2.80000    33.35289   358.98195     3.39225    33.63992     1.98823     3.41037
     2.90000    35.12567   358.95241     3.38609    35.38405     1.96723     3.40652
     3.00000    36.96468   358.92392     3.37967    37.19167     1.94747     3.40254
     3.10000    38.92860   358.89550     3.37284    39.12008     1.92826     3.39833
     3.20000    41.07733   358.86637     3.36547    41.22754     1.90908     3.39380
     3.30000    43.35500   358.83730     3.35788    43.45869     1.89044     3.38911
     3.40000    45.88080   358.80682     3.34984    45.92971     1.87139     3.38407
     3.50000    48.65795   358.77499     3.34161    48.64312     1.85194     3.37876
     3.60000    51.80811   358.74055     3.33322    51.71746     1.83127     3.37304
     3.70000    55.39459   358.70304     3.32512    55.21481     1.80893     3.36696
     3.80000    59.78047   358.65919     3.31754    59.49139     1.78257     3.36018
     3.90000    65.51129   358.60500     3.31171    65.08706     1.74851     3.35236
     4.00000    74.09310   358.53082     3.31130    73.50324     1.69597     3.34276
     4.10000    90.35954   358.41562     3.33100    89.64046     1.58438     3.33100
     4.20000    90.35953   358.41568     3.33112    89.64047     1.58432     3.33112
     4.30000    90.35952   358.41574     3.33124    89.64048     1.58426     3.33124
     4.40000    90.35950   358.41580     3.33135    89.64050     1.58420     3.33135
     4.50000    90.35949   358.41586     3.33147    89.64051     1.58414     3.33147
     4.60000    90.35948   358.41591     3.33159    89.64052     1.58409     3.33159
     4.70000    90.35946   358.41597     3.33170    89.64054     1.58403     3.33170
     4.80000    90.35945   358.41603     3.33182    89.64055     1.58397     3.33182
     4.90000    90.35944   358.41609     3.33193    89.64056     1.58391     3.33193
     5.00000    90.35943   358.41615     3.33205    89.64057     1.58385     3.33205
     5.10000    90.35941   358.41621     3.33217    89.64059     1.58379     3.33217
     5.20000    90.35940   358.41627     3.33228    89.64060     1.58373     3.33228
     5.30000    90.35939   358.41633     3.33240    89.64061     1.58367     3.33240
     5.40000    90.35937   358.41639     3.33252    89.64063     1.58361     3.33252
     5.50000    90.35936   358.41645     3.33263    89.64064     1.58355     3.33263
     5.60000    90.35935   358.41651     3.33275    89.64065     1.58349     3.33275
     5.70000    90.35934   358.41657     3.33286    89.64066     1.58343     3.33286
     5.80000    90.35932   358.41663     3.33298    89.64068     1.58337     3.33298
     5.90000    90.35931   358.41669     3.33309    89.64069     1.58331     3.33309
     6.00000    90.35930   358.41675     3.33321    89.64070     1.58325     3.33321
     6.10000    90.35928   358.41681     3.33333    89.64072     1.58319     3.33333
     6.20000    90.35927   358.41687     3.33344    89.64073     1.58313     3.33344
     6.30000    90.35926   358.41693     3.33356    89.64074     1.58307     3.33356
     6.40000    90.35925   358.41699     3.33367    89.64075     1.58301     3.33367
     6.50000    90.35923   358.41705     3.33379    89.64077     1.58295     3.33379
     6.60000    90.35922   358.41711     3.33391    89.64078     1.58289     3.33391
     6.70000    90.35921   358.41716     3.33402    89.64079     1.58284     3.33402
     6.80000    90.35919   358.41722     3.33414    89.64081     1.58278     3.33414
     6.90000    90.35918   358.41728     3.33425    89.64082     1.58272     3.33425
     7.00000    90.35917   358.41734     3.33437    89.64083     1.58266     3.33437
     7.10000    90.35916   358.41740     3.33448    89.64084     1.58260     3.33448
     7.20000    90.35914   358.41746     3.33460    89.64086     1.58254     3.33460
     7.30000    90.35913   358.41752     3.33471    89.64087     1.58248     3.33471
     7.40000    90.35912   358.41758     3.33483    89.64088     1.58242     3.33483
     7.50000    90.35911   358.41764     3.33494    89.64089     1.58236     3.33494
     7.60000    90.35909   358.41770     3.33506    89.64091     1.58230     3.33506
     7.70000    90.35908   358.41776     3.33518    89.64092     1.58224     3.33518
     7.80000    90.35907   358.41782     3.33529    89.64093     1.58218     3.33529
     7.90000    90.35905   358.41788     3.33541    89.64095     1.58212     3.33541
     8.00000    90.35904   358.41794     3.33552    89.64096     1.58206     3.33552
     8.10000    90.35903   358.41800     3.33564    89.64097     1.58200     3.33564
     8.20000    90.35902   358.41806     3.33575    89.64098     1.58194     3.33575
     8.30000    90.35900   358.41811     3.33587    89.64100     1.58189     3.33587
     8.40000    90.35899   358.41817     3.33598    89.64101     1.58183     3.33598
     8.50000    90.35898   358.41823     3.33610    89.64102     1.58177     3.33610
     8.60000    90.35897   358.41829     3.33621    89.64103     1.58171     3.33621
     8.70000    90.35895   358.41835     3.33633    89.64105     1.58165     3.33633
     8.80000    90.35894   358.41841     3.33644    89.64106     1.58159     3.33644
     8.90000    90.35893   358.41847     3.33656    89.64107     1.58153     3.33656
     9.00000    90.35891   358.41853     3.33667    89.64109     1.58147     3.33667
     9.10000    90.35890   358.41859     3.33679    89.64110     1.58141     3.33679
     9.20000    90.35889   358.41865     3.33690    89.64111     1.58135     3.33690
     9.30000    90.35888   358.41871     3.33702    89.64112     1.58129     3.33702
     9.40000    90.35886   358.41877     3.33713    89.64114     1.58123     3.33713
     9.50000    90.35885   358.41882     3.33725    89.64115     1.58118     3.33725
     9.60000    90.35884   358.41888     3.33736    89.64116     1.58112     3.33736
     9.70000    90.35883   358.41894     3.33748    89.64117     1.58106     3.33748
     9.80000    90.35881   358.41900     3.33759    89.64119     1.58100     3.33759
     9.90000    90.35880   358.41906     3.33771    89.64120     1.58094     3.33771
    10.00000    90.35879   358.41912     3.33782    89.64121     1.58088     3.33782
    10.10000    90.35877   358.41918     3.33793    89.64123     1.58082     3.33793
    10.20000    90.35876   358.41924     3.33805    89.64124     1.58076     3.33805
    10.30000    90.35875   358.41930     3.33816    89.64125     1.58070     3.33816
    10.40000    90.35874   358.41936     3.33828    89.64126     1.58064     3.33828
    10.50000    90.35872   358.41942     3.33839    89.64128     1.58058     3.33839
    10.60000    90.35871   358.41947     3.33851    89.64129     1.58053     3.33851
    10.70000    90.35870   358.41953     3.33862    89.64130     1.58047     3.33862
    10.80000    90.35869   358.41959     3.33874    89.64131     1.58041     3.33874
    10.90000    90.35867   358.41965     3.33885    89.64133     1.58035     3.33885
    11.00000    90.35866   358.41971     3.33896    89.64134     1.58029     3.33896
    11.10000    90.35865   358.41977     3.33908    89.64135     1.58023     3.33908
    11.20000    90.35863   358.41983     3.33919    89.64137     1.58017     3.33919
    11.30000    90.35862   358.41989     3.33931    89.64138     1.58011     3.33931
    11.40000    90.35861   358.41995     3.33942    89.64139     1.58005     3.33942
    11.50000    90.35860   358.42001     3.33954    89.64140     1.57999     3.33954
    11.60000    90.35858   358.42006     3.33965    89.64142     1.57994     3.33965
    11.70000    90.35857   358.42012     3.33976    89.64143     1.57988     3.33976
    11.80000    90.35856   358.42018     3.33988    89.64144     1.57982     3.33988
    11.90000    90.35855   358.42024     3.33999    89.64145     1.57976     3.33999
    12.00000    90.35853   358.42030     3.34011    89.64147     1.57970     3.34011
    12.10000    90.35852   358.42036     3.34022    89.64148     1.57964     3.34022
    12.20000    90.35851   358.42042     3.34033    89.64149     1.57958     3.34033
    12.30000    90.35849   358.42048     3.34045    89.64151     1.57952     3.34045
    12.40000    90.35848   358.42054     3.34056    89.64152     1.57946     3.34056
    12.50000    90.35847   358.42059     3.34068    89.64153     1.57941     3.34068
    12.60000    90.35846   358.42065     3.34079    89.64154     1.57935     3.34079
    12.70000    90.35844   358.42071     3.34090    89.64156     1.57929     3.34090
    12.80000    90.35843   358.42077     3.34102    89.64157     1.57923     3.34102
    12.90000    90.35842   358.42083     3.34113    89.64158     1.57917     3.34113
    13.00000    90.35841   358.42089     3.34124    89.64159     1.57911     3.34124
    13.10000    90.35839   358.42095     3.34136    89.64161     1.57905     3.34136
    13.20000    90.35838   358.42101     3.34147    89.64162     1.57899     3.34147
    13.30000    90.35837   358.42106     3.34158    89.64163     1.57894     3.34158
    13.40000    90.35836   358.42112     3.34170    89.64164     1.57888     3.34170
    13.50000    90.35834   358.42118     3.34181    89.64166     1.57882     3.34181
    13.60000    90.35833   358.42124     3.34193    89.64167     1.57876     3.34193
    13.70000    90.35832   358.42130     3.34204    89.64168     1.57870     3.34204
    13.80000    90.35831   358.42136     3.34215    89.64169     1.57864     3.34215
    13.90000    90.35829   358.42142     3.34227    89.64171     1.57858     3.34227
    14.00000    90.35828   358.42148     3.34238    89.64172     1.57852     3.34238
    14.10000    90.35827   358.42153     3.34249    89.64173     1.57847     3.34249
    14.20000    90.35825   358.42159     3.34261    89.64175     1.57841     3.34261
    14.30000    90.35824   358.42165     3.34272    89.64176     1.57835     3.34272
    14.40000    90.35823   358.42171     3.34283    89.64177     1.57829     3.34283
    14.50000    90.35822   358.42177     3.34295    89.64178     1.57823     3.34295
    14.60000    90.35820   358.42183     3.34306    89.64180     1.57817     3.34306
    14.70000    90.35819   358.42189     3.34317    89.64181     1.57811     3.34317
    14.80000    90.35818   358.42194     3.34328    89.64182     1.57806     3.34328
    14.90000    90.35817   358.42200     3.34340    89.64183     1.57800     3.34340
    15.00000    90.35815   358.42206     3.34351    89.64185     1.57794     3.34351
    15.10000    90.35814   358.42212     3.34362    89.64186     1.57788     3.34362
    15.20000    90.35813   358.42218     3.34374    89.64187     1.57782     3.34374
    15.30000    90.35812   358.42224     3.34385    89.64188     1.57776     3.34385
    15.40000    90.35810   358.42230     3.34396    89.64190     1.57770     3.34396
    15.50000    90.35809   358.42235     3.34408    89.64191     1.57765     3.34408
    15.60000    90.35808   358.42241     3.34419    89.64192     1.57759     3.34419
    15.70000    90.35807   358.42247     3.34430    89.64193     1.57753     3.34430
    15.80000    90.35805   358.42253     3.34441    89.64195     1.57747     3.34441
    15.90000    90.35804   358.42259     3.34453    89.64196     1.57741     3.34453
    16.00000    90.35803   358.42265     3.34464    89.64197     1.57735     3.34464
    16.10000    90.35801   358.42270     3.34475    89.64199     1.57730     3.34475
    16.20000    90.35800   358.42276     3.34487    89.64200     1.57724     3.34487
    16.30000    90.35799   358.42282     3.34498    89.64201     1.57718     3.34498
    16.40000    90.35798   358.42288     3.34509    89.64202     1.57712     3.34509
    16.50000    90.35796   358.42294     3.34520    89.64204     1.57706     3.34520
    16.60000    90.35795   358.42300     3.34532    89.64205     1.57700     3.34532
    16.70000    90.35794   358.42306     3.34543    89.64206     1.57694     3.34543
    16.80000    90.35793   358.42311     3.34554    89.64207     1.57689     3.34554
    16.90000    90.35791   358.42317     3.34565    89.64209     1.57683     3.34565
    17.00000    90.35790   358.42323     3.34577    89.64210     1.57677     3.34577
    17.10000    90.35789   358.42329     3.34588    89.64211     1.57671     3.34588
    17.20000    90.35788   358.42335     3.34599    89.64212     1.57665     3.34599
    17.30000    90.35786   358.42341     3.34610    89.64214     1.57659     3.34610
    17.40000    90.35785   358.42346     3.34622    89.64215     1.57654     3.34622
    17.50000    90.35784   358.42352     3.34633    89.64216     1.57648     3.34633
    17.60000    90.35783   358.42358     3.34644    89.64217     1.57642     3.34644
    17.70000    90.35781   358.42364     3.34655    89.64219     1.57636     3.34655
    17.80000    90.35780   358.42370     3.34666    89.64220     1.57630     3.34666
    17.90000    90.35779   358.42376     3.34678    89.64221     1.57624     3.34678
    18.00000    90.35778   358.42381     3.34689    89.64222     1.57619     3.34689
    18.10000    90.35776   358.42387     3.34700    89.64224     1.57613     3.34700
    18.20000    90.35775   358.42393     3.34711    89.64225     1.57607     3.34711
    18.30000    90.35774   358.42399     3.34722    89.64226     1.57601     3.34722
    18.40000    90.35773   358.42405     3.34734    89.64227     1.57595     3.34734
    18.50000    90.35771   358.42410     3.34745    89.64229     1.57590     3.34745
    18.60000    90.35770   358.42416     3.34756    89.64230     1.57584     3.34756
    18.70000    90.35769   358.42422     3.34767    89.64231     1.57578     3.34767
    18.80000    90.35768   358.42428     3.34778    89.64232     1.57572     3.34778
    18.90000    90.35766   358.42434     3.34790    89.64234     1.57566     3.34790
    19.00000    90.35765   358.42440     3.34801    89.64235     1.57560     3.34801
    19.10000    90.35764   358.42445     3.34812    89.64236     1.57555     3.34812
    19.20000    90.35763   358.42451     3.34823    89.64237     1.57549     3.34823
    19.30000    90.35761   358.42457     3.34834    89.64239     1.57543     3.34834
    19.40000    90.35760   358.42463     3.34846    89.64240     1.57537     3.34846
    19.50000    90.35759   358.42469     3.34857    89.64241     1.57531     3.34857
    19.60000    90.35758   358.42474     3.34868    89.64242     1.57526     3.34868
    19.70000    90.35756   358.42480     3.34879    89.64244     1.57520     3.34879
    19.80000    90.35755   358.42486     3.34890    89.64245     1.57514     3.34890
    19.90000    90.35754   358.42492     3.34901    89.64246     1.57508     3.34901
    20.00000    90.35753   358.42498     3.34913    89.64247     1.57502     3.34913
    20.10000    90.35751   358.42503     3.34924    89.64249     1.57497     3.34924
    20.20000    90.35750   358.42509     3.34935    89.64250     1.57491     3.34935
    20.30000    90.35749   358.42515     3.34946    89.64251     1.57485     3.34946
    20.40000    90.35748   358.42521     3.34957    89.64252     1.57479     3.34957
    20.50000    90.35746   358.42527     3.34968    89.64254     1.57473     3.34968
    20.60000    90.35745   358.42532     3.34979    89.64255     1.57468     3.34979
    20.70000    90.35744   358.42538     3.34990    89.64256     1.57462     3.34990
    20.80000    90.35743   358.42544     3.35002    89.64257     1.57456     3.35002
    20.90000    90.35741   358.42550     3.35013    89.64259     1.57450     3.35013
    21.00000    90.35740   358.42556     3.35024    89.64260     1.57444     3.35024
    21.10000    90.35739   358.42561     3.35035    89.64261     1.57439     3.35035
    21.20000    90.35738   358.42567     3.35046    89.64262     1.57433     3.35046
    21.30000    90.35736   358.42573     3.35057    89.64264     1.57427     3.35057
    21.40000    90.35735   358.42579     3.35068    89.64265     1.57421     3.35068
    21.50000    90.35734   358.42585     3.35079    89.64266     1.57415     3.35079
    21.60000    90.35733   358.42590     3.35091    89.64267     1.57410     3.35091
    21.70000    90.35731   358.42596     3.35102    89.64269     1.57404     3.35102
    21.80000    90.35730   358.42602     3.35113    89.64270     1.57398     3.35113
    21.90000    90.35729   358.42608     3.35124    89.64271     1.57392     3.35124
    22.00000    90.35728   358.42614     3.35135    89.64272     1.57386     3.35135
    22.10000    90.35726   358.42619     3.35146    89.64274     1.57381     3.35146
    22.20000    90.35725   358.42625     3.35157    89.64275     1.57375     3.35157
    22.30000    90.35724   358.42631     3.35168    89.64276     1.57369     3.35168
    22.40000    90.35723   358.42637     3.35179    89.64277     1.57363     3.35179
    22.50000    90.35721   358.42642     3.35190    89.64279     1.57358     3.35190
    22.60000    90.35720   358.42648     3.35201    89.64280     1.57352     3.35201
    22.70000    90.35719   358.42654     3.35212    89.64281     1.57346     3.35212
    22.80000    90.35718   358.42660     3.35224    89.64282     1.57340     3.35224
    22.90000    90.35716   358.42666     3.35235    89.64284     1.57334     3.35235
    23.00000    90.35715   358.42671     3.35246    89.64285     1.57329     3.35246
    23.10000    90.35714   358.42677     3.35257    89.64286     1.57323     3.35257
    23.20000    90.35713   358.42683     3.35268    89.64287     1.57317     3.35268
    23.30000    90.35711   358.42689     3.35279    89.64289     1.57311     3.35279
