 # applied field (T), theta (degree), phi (degree), abs [muB/unitcell], abs [T]
       0.00000000      90.00000000      45.42851978      36.92440421       1.28580981
       0.10000000      90.00000000       0.85723630      36.92261338       1.28574745
       0.20000000      90.00000000     360.00000000      36.92285749       1.28575595
       0.30000000      90.00000000     360.00000000      36.92310338       1.28576451
       0.40000000      90.00000000     360.00000000      36.92334925       1.28577308
       0.50000000      90.00000000     360.00000000      36.92359510       1.28578164
       0.60000000      90.00000000     360.00000000      36.92384093       1.28579020
       0.70000000      90.00000000     360.00000000      36.92408674       1.28579876
       0.80000000      90.00000000     360.00000000      36.92433253       1.28580732
       0.90000000      90.00000000     360.00000000      36.92457830       1.28581587
       1.00000000      90.00000000     360.00000000      36.92482405       1.28582443
       1.10000000      90.00000000     360.00000000      36.92506978       1.28583299
       1.20000000      90.00000000     360.00000000      36.92531549       1.28584155
       1.30000000      90.00000000     360.00000000      36.92556118       1.28585010
       1.40000000      90.00000000     360.00000000      36.92580686       1.28585866
       1.50000000      90.00000000     360.00000000      36.92605251       1.28586721
       1.60000000      90.00000000     360.00000000      36.92629814       1.28587576
       1.70000000      90.00000000     360.00000000      36.92654376       1.28588432
       1.80000000      90.00000000     360.00000000      36.92678935       1.28589287
       1.90000000      90.00000000     360.00000000      36.92703493       1.28590142
       2.00000000      90.00000000     360.00000000      36.92728048       1.28590997
       2.10000000      90.00000000     360.00000000      36.92752602       1.28591852
       2.20000000      90.00000000     360.00000000      36.92777153       1.28592707
       2.30000000      90.00000000     360.00000000      36.92801703       1.28593562
       2.40000000      90.00000000     360.00000000      36.92826251       1.28594417
       2.50000000      90.00000000     360.00000000      36.92850796       1.28595272
       2.60000000      90.00000000     360.00000000      36.92875340       1.28596126
       2.70000000      90.00000000     360.00000000      36.92899882       1.28596981
       2.80000000      90.00000000     360.00000000      36.92924422       1.28597836
       2.90000000      90.00000000     360.00000000      36.92948960       1.28598690
       3.00000000      90.00000000     360.00000000      36.92973496       1.28599544
       3.10000000      90.00000000     360.00000000      36.92998030       1.28600399
       3.20000000      90.00000000     360.00000000      36.93022562       1.28601253
       3.30000000      90.00000000     360.00000000      36.93047093       1.28602107
       3.40000000      90.00000000     360.00000000      36.93071621       1.28602961
       3.50000000      90.00000000     360.00000000      36.93096147       1.28603815
       3.60000000      90.00000000     360.00000000      36.93120672       1.28604669
       3.70000000      90.00000000     360.00000000      36.93145194       1.28605523
       3.80000000      90.00000000     360.00000000      36.93169715       1.28606377
       3.90000000      90.00000000     360.00000000      36.93194233       1.28607231
       4.00000000      90.00000000     360.00000000      36.93218750       1.28608085
       4.10000000      90.00000000     360.00000000      36.93243265       1.28608938
       4.20000000      90.00000000     360.00000000      36.93267778       1.28609792
       4.30000000      90.00000000     360.00000000      36.93292289       1.28610646
       4.40000000      90.00000000     360.00000000      36.93316798       1.28611499
       4.50000000      90.00000000     360.00000000      36.93341305       1.28612353
       4.60000000      90.00000000     360.00000000      36.93365810       1.28613206
       4.70000000      90.00000000     360.00000000      36.93390313       1.28614059
       4.80000000      90.00000000     360.00000000      36.93414814       1.28614912
       4.90000000      90.00000000     360.00000000      36.93439314       1.28615765
       5.00000000      90.00000000     360.00000000      36.93463811       1.28616619
       5.10000000      90.00000000     360.00000000      36.93488307       1.28617472
       5.20000000      90.00000000     360.00000000      36.93512800       1.28618324
       5.30000000      90.00000000     360.00000000      36.93537292       1.28619177
       5.40000000      90.00000000     360.00000000      36.93561782       1.28620030
       5.50000000      90.00000000     360.00000000      36.93586269       1.28620883
       5.60000000      90.00000000     360.00000000      36.93610755       1.28621736
       5.70000000      90.00000000     360.00000000      36.93635239       1.28622588
       5.80000000      90.00000000     360.00000000      36.93659721       1.28623441
       5.90000000      90.00000000     360.00000000      36.93684202       1.28624293
       6.00000000      90.00000000     360.00000000      36.93708680       1.28625146
       6.10000000      90.00000000     360.00000000      36.93733156       1.28625998
       6.20000000      90.00000000     360.00000000      36.93757631       1.28626850
       6.30000000      90.00000000     360.00000000      36.93782103       1.28627702
       6.40000000      90.00000000     360.00000000      36.93806574       1.28628554
       6.50000000      90.00000000     360.00000000      36.93831043       1.28629407
       6.60000000      90.00000000     360.00000000      36.93855509       1.28630259
       6.70000000      90.00000000     360.00000000      36.93879974       1.28631110
       6.80000000      90.00000000     360.00000000      36.93904437       1.28631962
       6.90000000      90.00000000     360.00000000      36.93928898       1.28632814
       7.00000000      90.00000000     360.00000000      36.93953358       1.28633666
       7.10000000      90.00000000     360.00000000      36.93977815       1.28634518
       7.20000000      90.00000000     360.00000000      36.94002270       1.28635369
       7.30000000      90.00000000     360.00000000      36.94026724       1.28636221
       7.40000000      90.00000000     360.00000000      36.94051175       1.28637072
       7.50000000      90.00000000     360.00000000      36.94075625       1.28637924
       7.60000000      90.00000000     360.00000000      36.94100073       1.28638775
       7.70000000      90.00000000     360.00000000      36.94124519       1.28639626
       7.80000000      90.00000000     360.00000000      36.94148963       1.28640477
       7.90000000      90.00000000     360.00000000      36.94173405       1.28641329
       8.00000000      90.00000000     360.00000000      36.94197845       1.28642180
       8.10000000      90.00000000     360.00000000      36.94222284       1.28643031
       8.20000000      90.00000000     360.00000000      36.94246720       1.28643882
       8.30000000      90.00000000     360.00000000      36.94271155       1.28644732
       8.40000000      90.00000000     360.00000000      36.94295587       1.28645583
       8.50000000      90.00000000     360.00000000      36.94320018       1.28646434
       8.60000000      90.00000000     360.00000000      36.94344447       1.28647285
       8.70000000      90.00000000     360.00000000      36.94368874       1.28648135
       8.80000000      90.00000000     360.00000000      36.94393299       1.28648986
       8.90000000      90.00000000     360.00000000      36.94417722       1.28649836
       9.00000000      90.00000000     360.00000000      36.94442144       1.28650687
       9.10000000      90.00000000     360.00000000      36.94466563       1.28651537
       9.20000000      90.00000000     360.00000000      36.94490981       1.28652387
       9.30000000      90.00000000     360.00000000      36.94515396       1.28653238
       9.40000000      90.00000000     360.00000000      36.94539810       1.28654088
       9.50000000      90.00000000     360.00000000      36.94564222       1.28654938
       9.60000000      90.00000000     360.00000000      36.94588632       1.28655788
       9.70000000      90.00000000     360.00000000      36.94613041       1.28656638
       9.80000000      90.00000000     360.00000000      36.94637447       1.28657488
       9.90000000      90.00000000     360.00000000      36.94661851       1.28658338
      10.00000000      90.00000000     360.00000000      36.94686254       1.28659187
      10.10000000      90.00000000     360.00000000      36.94710655       1.28660037
      10.20000000      90.00000000     360.00000000      36.94735054       1.28660887
      10.30000000      90.00000000     360.00000000      36.94759451       1.28661736
      10.40000000      90.00000000     360.00000000      36.94783846       1.28662586
      10.50000000      90.00000000     360.00000000      36.94808239       1.28663435
      10.60000000      90.00000000     360.00000000      36.94832630       1.28664285
      10.70000000      90.00000000     360.00000000      36.94857020       1.28665134
      10.80000000      90.00000000     360.00000000      36.94881407       1.28665983
      10.90000000      90.00000000     360.00000000      36.94905793       1.28666832
      11.00000000      90.00000000     360.00000000      36.94930177       1.28667681
      11.10000000      90.00000000     360.00000000      36.94954559       1.28668530
      11.20000000      90.00000000     360.00000000      36.94978939       1.28669379
      11.30000000      90.00000000     360.00000000      36.95003318       1.28670228
      11.40000000      90.00000000     360.00000000      36.95027694       1.28671077
      11.50000000      90.00000000     360.00000000      36.95052069       1.28671926
      11.60000000      90.00000000     360.00000000      36.95076442       1.28672775
      11.70000000      90.00000000     360.00000000      36.95100813       1.28673623
      11.80000000      90.00000000     360.00000000      36.95125182       1.28674472
      11.90000000      90.00000000     360.00000000      36.95149549       1.28675321
      12.00000000      90.00000000     360.00000000      36.95173914       1.28676169
      12.10000000      90.00000000     360.00000000      36.95198278       1.28677017
      12.20000000      90.00000000     360.00000000      36.95222639       1.28677866
      12.30000000      90.00000000     360.00000000      36.95246999       1.28678714
      12.40000000      90.00000000     360.00000000      36.95271357       1.28679562
      12.50000000      90.00000000     360.00000000      36.95295713       1.28680410
      12.60000000      90.00000000     360.00000000      36.95320067       1.28681259
      12.70000000      90.00000000     360.00000000      36.95344420       1.28682107
      12.80000000      90.00000000     360.00000000      36.95368770       1.28682954
      12.90000000      90.00000000     360.00000000      36.95393119       1.28683802
      13.00000000      90.00000000     360.00000000      36.95417466       1.28684650
      13.10000000      90.00000000     360.00000000      36.95441811       1.28685498
      13.20000000      90.00000000     360.00000000      36.95466154       1.28686346
      13.30000000      90.00000000     360.00000000      36.95490496       1.28687193
      13.40000000      90.00000000     360.00000000      36.95514835       1.28688041
      13.50000000      90.00000000     360.00000000      36.95539173       1.28688888
      13.60000000      90.00000000     360.00000000      36.95563509       1.28689736
      13.70000000      90.00000000     360.00000000      36.95587843       1.28690583
      13.80000000      90.00000000     360.00000000      36.95612175       1.28691430
      13.90000000      90.00000000     360.00000000      36.95636505       1.28692278
      14.00000000      90.00000000     360.00000000      36.95660834       1.28693125
      14.10000000      90.00000000     360.00000000      36.95685160       1.28693972
      14.20000000      90.00000000     360.00000000      36.95709485       1.28694819
      14.30000000      90.00000000     360.00000000      36.95733808       1.28695666
      14.40000000      90.00000000     360.00000000      36.95758129       1.28696513
      14.50000000      90.00000000     360.00000000      36.95782449       1.28697360
      14.60000000      90.00000000     360.00000000      36.95806766       1.28698207
      14.70000000      90.00000000     360.00000000      36.95831082       1.28699053
      14.80000000      90.00000000     360.00000000      36.95855396       1.28699900
      14.90000000      90.00000000     360.00000000      36.95879708       1.28700747
      15.00000000      90.00000000     360.00000000      36.95904018       1.28701593
      15.10000000      90.00000000     360.00000000      36.95928327       1.28702440
      15.20000000      90.00000000     360.00000000      36.95952633       1.28703286
      15.30000000      90.00000000     360.00000000      36.95976938       1.28704133
      15.40000000      90.00000000     360.00000000      36.96001241       1.28704979
      15.50000000      90.00000000     360.00000000      36.96025542       1.28705825
      15.60000000      90.00000000     360.00000000      36.96049841       1.28706671
      15.70000000      90.00000000     360.00000000      36.96074139       1.28707517
      15.80000000      90.00000000     360.00000000      36.96098435       1.28708363
      15.90000000      90.00000000     360.00000000      36.96122728       1.28709209
      16.00000000      90.00000000     360.00000000      36.96147020       1.28710055
      16.10000000      90.00000000     360.00000000      36.96171311       1.28710901
      16.20000000      90.00000000     360.00000000      36.96195599       1.28711747
      16.30000000      90.00000000     360.00000000      36.96219886       1.28712593
      16.40000000      90.00000000     360.00000000      36.96244171       1.28713438
      16.50000000      90.00000000     360.00000000      36.96268454       1.28714284
      16.60000000      90.00000000     360.00000000      36.96292735       1.28715129
      16.70000000      90.00000000     360.00000000      36.96317014       1.28715975
      16.80000000      90.00000000     360.00000000      36.96341292       1.28716820
      16.90000000      90.00000000     360.00000000      36.96365568       1.28717666
      17.00000000      90.00000000     360.00000000      36.96389841       1.28718511
      17.10000000      90.00000000     360.00000000      36.96414114       1.28719356
      17.20000000      90.00000000     360.00000000      36.96438384       1.28720201
      17.30000000      90.00000000     360.00000000      36.96462653       1.28721046
      17.40000000      90.00000000     360.00000000      36.96486919       1.28721892
      17.50000000      90.00000000     360.00000000      36.96511184       1.28722736
      17.60000000      90.00000000     360.00000000      36.96535448       1.28723581
      17.70000000      90.00000000     360.00000000      36.96559709       1.28724426
      17.80000000      90.00000000     360.00000000      36.96583968       1.28725271
      17.90000000      90.00000000     360.00000000      36.96608226       1.28726116
      18.00000000      90.00000000     360.00000000      36.96632482       1.28726960
      18.10000000      90.00000000     360.00000000      36.96656736       1.28727805
      18.20000000      90.00000000     360.00000000      36.96680989       1.28728650
      18.30000000      90.00000000     360.00000000      36.96705240       1.28729494
      18.40000000      90.00000000     360.00000000      36.96729488       1.28730338
      18.50000000      90.00000000     360.00000000      36.96753735       1.28731183
      18.60000000      90.00000000     360.00000000      36.96777981       1.28732027
      18.70000000      90.00000000     360.00000000      36.96802224       1.28732871
      18.80000000      90.00000000     360.00000000      36.96826466       1.28733715
      18.90000000      90.00000000     360.00000000      36.96850706       1.28734560
      19.00000000      90.00000000     360.00000000      36.96874944       1.28735404
      19.10000000      90.00000000     360.00000000      36.96899180       1.28736248
      19.20000000      90.00000000     360.00000000      36.96923415       1.28737091
      19.30000000      90.00000000     360.00000000      36.96947647       1.28737935
      19.40000000      90.00000000     360.00000000      36.96971878       1.28738779
      19.50000000      90.00000000     360.00000000      36.96996108       1.28739623
      19.60000000      90.00000000     360.00000000      36.97020335       1.28740467
      19.70000000      90.00000000     360.00000000      36.97044561       1.28741310
      19.80000000      90.00000000     360.00000000      36.97068785       1.28742154
      19.90000000      90.00000000     360.00000000      36.97093007       1.28742997
      20.00000000      90.00000000     360.00000000      36.97117227       1.28743841
      20.10000000      90.00000000     360.00000000      36.97141446       1.28744684
      20.20000000      90.00000000     360.00000000      36.97165662       1.28745527
      20.30000000      90.00000000     360.00000000      36.97189877       1.28746370
      20.40000000      90.00000000     360.00000000      36.97214091       1.28747214
      20.50000000      90.00000000     360.00000000      36.97238302       1.28748057
      20.60000000      90.00000000     360.00000000      36.97262512       1.28748900
      20.70000000      90.00000000     360.00000000      36.97286720       1.28749743
      20.80000000      90.00000000     360.00000000      36.97310926       1.28750586
      20.90000000      90.00000000     360.00000000      36.97335130       1.28751429
      21.00000000      90.00000000     360.00000000      36.97359333       1.28752271
      21.10000000      90.00000000     360.00000000      36.97383534       1.28753114
      21.20000000      90.00000000     360.00000000      36.97407733       1.28753957
      21.30000000      90.00000000     360.00000000      36.97431931       1.28754799
      21.40000000      90.00000000     360.00000000      36.97456126       1.28755642
      21.50000000      90.00000000     360.00000000      36.97480320       1.28756484
      21.60000000      90.00000000     360.00000000      36.97504512       1.28757327
      21.70000000      90.00000000     360.00000000      36.97528702       1.28758169
      21.80000000      90.00000000     360.00000000      36.97552891       1.28759012
      21.90000000      90.00000000     360.00000000      36.97577078       1.28759854
      22.00000000      90.00000000     360.00000000      36.97601263       1.28760696
      22.10000000      90.00000000     360.00000000      36.97625446       1.28761538
      22.20000000      90.00000000     360.00000000      36.97649628       1.28762380
      22.30000000      90.00000000     360.00000000      36.97673808       1.28763222
      22.40000000      90.00000000     360.00000000      36.97697986       1.28764064
      22.50000000      90.00000000     360.00000000      36.97722162       1.28764906
      22.60000000      90.00000000     360.00000000      36.97746336       1.28765748
      22.70000000      90.00000000     360.00000000      36.97770509       1.28766590
      22.80000000      90.00000000     360.00000000      36.97794680       1.28767431
      22.90000000      90.00000000     360.00000000      36.97818850       1.28768273
      23.00000000      90.00000000     360.00000000      36.97843017       1.28769115
