 # applied field (T), theta (degree), phi (degree), abs for RE 3-4
     0.00000   180.00000   180.00000     4.40987   180.00000   180.00000     4.40987
     0.10000   179.71191   180.00000     4.40987   179.72545   180.00000     4.40987
     0.20000   179.42380   180.00000     4.40986   179.45089   180.00000     4.40986
     0.30000   179.13568   180.00000     4.40984   179.17630   180.00000     4.40984
     0.40000   178.89553   180.00000     4.40982   178.94746   180.00000     4.40982
     0.50000   178.60734   180.00000     4.40980   178.67280   180.00000     4.40979
     0.60000   178.31910   180.00000     4.40976   178.39808   180.00000     4.40975
     0.70000   178.03080   180.00000     4.40972   178.12330   180.00000     4.40971
     0.80000   177.74243   180.00000     4.40967   177.84844   180.00000     4.40965
     0.90000   177.45398   180.00000     4.40962   177.57349   180.00000     4.40960
     1.00000   177.16544   180.00000     4.40956   177.29844   180.00000     4.40953
     1.10000   176.87679   180.00000     4.40950   177.02328   180.00000     4.40946
     1.20000   176.58803   180.00000     4.40942   176.74798   180.00000     4.40938
     1.30000   176.34728   180.00000     4.40936   176.51847   180.00000     4.40931
     1.40000   176.05829   180.00000     4.40928   176.24292   180.00000     4.40921
     1.50000   175.76916   180.00000     4.40919   175.96721   180.00000     4.40911
     1.60000   175.47988   180.00000     4.40909   175.69133   180.00000     4.40901
     1.70000   175.19043   180.00000     4.40899   175.41527   180.00000     4.40889
     1.80000   174.90082   180.00000     4.40888   175.13901   180.00000     4.40877
     1.90000   174.61102   180.00000     4.40876   174.86256   180.00000     4.40865
     2.00000   174.32103   180.00000     4.40864   174.58588   180.00000     4.40851
     2.10000   174.03084   180.00000     4.40852   174.30898   180.00000     4.40837
     2.20000   173.74043   180.00000     4.40838   174.03184   180.00000     4.40822
     2.30000   173.44980   180.00000     4.40824   173.75445   180.00000     4.40807
     2.40000   173.15894   180.00000     4.40810   173.47680   180.00000     4.40791
     2.50000   172.86784   180.00000     4.40795   173.19887   180.00000     4.40774
     2.60000   172.57648   180.00000     4.40779   172.92066   180.00000     4.40756
     2.70000   172.28486   180.00000     4.40763   172.64215   180.00000     4.40738
     2.80000   171.99297   180.00000     4.40746   172.36334   180.00000     4.40719
     2.90000   171.70080   180.00000     4.40728   172.08420   180.00000     4.40700
     3.00000   171.40833   180.00000     4.40710   171.80473   180.00000     4.40680
     3.10000   171.11556   180.00000     4.40692   171.52492   180.00000     4.40659
     3.20000   170.82248   180.00000     4.40672   171.24475   180.00000     4.40637
     3.30000   170.52908   180.00000     4.40653   170.96422   180.00000     4.40615
     3.40000   170.23534   180.00000     4.40632   170.68331   180.00000     4.40592
     3.50000   169.94127   180.00000     4.40611   170.40201   180.00000     4.40569
     3.60000   169.64685   180.00000     4.40590   170.12031   180.00000     4.40545
     3.70000   169.35206   180.00000     4.40568   169.83820   180.00000     4.40520
     3.80000   169.00772   180.00000     4.40541   169.50855   180.00000     4.40490
     3.90000   168.71213   180.00000     4.40518   169.22551   180.00000     4.40464
     4.00000   168.41614   180.00000     4.40494   168.94201   180.00000     4.40437
     4.10000   168.11976   180.00000     4.40470   168.65806   180.00000     4.40410
     4.20000   167.82296   180.00000     4.40445   168.37364   180.00000     4.40382
     4.30000   167.47623   180.00000     4.40416   168.04122   180.00000     4.40349
     4.40000   167.17852   180.00000     4.40390   167.75574   180.00000     4.40319
     4.50000   166.88038   180.00000     4.40363   167.46975   180.00000     4.40289
     4.60000   166.53203   180.00000     4.40332   167.13547   180.00000     4.40254
     4.70000   166.23292   180.00000     4.40304   166.84834   180.00000     4.40222
     4.80000   165.93333   180.00000     4.40276   166.56067   180.00000     4.40191
     4.90000   165.58328   180.00000     4.40243   166.22439   180.00000     4.40153
     5.00000   165.28266   180.00000     4.40214   165.93550   180.00000     4.40120
     5.10000   164.93138   180.00000     4.40180   165.59778   180.00000     4.40081
     5.20000   164.62969   180.00000     4.40149   165.30763   180.00000     4.40046
     5.30000   164.27713   180.00000     4.40114   164.96840   180.00000     4.40006
     5.40000   163.97433   180.00000     4.40083   164.67693   180.00000     4.39970
     5.50000   163.62046   180.00000     4.40046   164.33614   180.00000     4.39928
     5.60000   163.31651   180.00000     4.40014   164.04330   180.00000     4.39891
     5.70000   162.96128   180.00000     4.39977   163.70089   180.00000     4.39848
     5.80000   162.65614   180.00000     4.39944   163.40663   180.00000     4.39810
     5.90000   162.29951   180.00000     4.39905   163.06254   180.00000     4.39766
     6.00000   161.94211   180.00000     4.39866   162.71751   180.00000     4.39720
     6.10000   161.58392   180.00000     4.39826   162.37154   180.00000     4.39674
     6.20000   161.22495   180.00000     4.39786   162.02461   180.00000     4.39628
     6.30000   160.91655   180.00000     4.39751   161.72642   180.00000     4.39587
     6.40000   160.55607   180.00000     4.39710   161.37766   180.00000     4.39539
     6.50000   160.19478   180.00000     4.39669   161.02790   180.00000     4.39491
     6.60000   159.83264   180.00000     4.39627   160.67711   180.00000     4.39442
     6.70000   159.46967   180.00000     4.39584   160.32529   180.00000     4.39392
     6.80000   159.10585   180.00000     4.39541   159.97242   180.00000     4.39342
     6.90000   158.68906   180.00000     4.39492   159.56788   180.00000     4.39284
     7.00000   158.32339   180.00000     4.39449   159.21270   180.00000     4.39233
     7.10000   157.95683   180.00000     4.39405   158.85643   180.00000     4.39181
     7.20000   157.58939   180.00000     4.39360   158.49904   180.00000     4.39129
     7.30000   157.16843   180.00000     4.39310   158.08929   180.00000     4.39069
     7.40000   156.79906   180.00000     4.39265   157.72947   180.00000     4.39015
     7.50000   156.37589   180.00000     4.39213   157.31691   180.00000     4.38954
     7.60000   156.00456   180.00000     4.39168   156.95461   180.00000     4.38900
     7.70000   155.57914   180.00000     4.39115   156.53918   180.00000     4.38838
     7.80000   155.15251   180.00000     4.39063   156.12219   180.00000     4.38775
     7.90000   154.72465   180.00000     4.39010   155.70363   180.00000     4.38712
     8.00000   154.29557   180.00000     4.38957   155.28349   180.00000     4.38648
     8.10000   153.86525   180.00000     4.38904   154.86173   180.00000     4.38584
     8.20000   153.43369   180.00000     4.38851   154.43836   180.00000     4.38520
     8.30000   153.00089   180.00000     4.38798   154.01335   180.00000     4.38455
     8.40000   152.56683   180.00000     4.38744   153.58670   180.00000     4.38390
     8.50000   152.07710   180.00000     4.38684   153.10480   180.00000     4.38317
     8.60000   151.64038   180.00000     4.38630   152.67461   180.00000     4.38251
     8.70000   151.14765   180.00000     4.38570   152.18871   180.00000     4.38177
     8.80000   150.65332   180.00000     4.38509   151.70068   180.00000     4.38104
     8.90000   150.15739   180.00000     4.38449   151.21048   180.00000     4.38030
     9.00000   149.65987   180.00000     4.38389   150.71813   180.00000     4.37956
     9.10000   149.16075   180.00000     4.38329   150.22361   180.00000     4.37882
     9.20000   148.66004   180.00000     4.38269   149.72690   180.00000     4.37807
     9.30000   148.10192   180.00000     4.38203   149.17253   180.00000     4.37726
     9.40000   147.54184   180.00000     4.38137   148.61546   180.00000     4.37644
     9.50000   146.97982   180.00000     4.38071   148.05569   180.00000     4.37562
     9.60000   146.41586   180.00000     4.38006   147.49322   180.00000     4.37481
     9.70000   145.84999   180.00000     4.37942   146.92805   180.00000     4.37400
     9.80000   145.22539   180.00000     4.37871   146.30334   180.00000     4.37312
     9.90000   144.59851   180.00000     4.37802   145.67540   180.00000     4.37225
    10.00000   143.96937   180.00000     4.37732   145.04423   180.00000     4.37139
    10.10000   143.28055   180.00000     4.37658   144.35211   180.00000     4.37045
    10.20000   142.58910   180.00000     4.37585   143.65621   180.00000     4.36953
    10.30000   141.89506   180.00000     4.37513   142.95658   180.00000     4.36863
    10.40000   141.14037   180.00000     4.37436   142.19457   180.00000     4.36766
    10.50000   140.38275   180.00000     4.37361   141.42830   180.00000     4.36672
    10.60000   139.56370   180.00000     4.37281   140.59847   180.00000     4.36572
    10.70000   138.74138   180.00000     4.37204   139.76390   180.00000     4.36475
    10.80000   137.85687   180.00000     4.37123   138.86464   180.00000     4.36374
    10.90000   136.90954   180.00000     4.37039   137.89981   180.00000     4.36270
    11.00000   135.95830   180.00000     4.36957   136.92930   180.00000     4.36169
    11.10000   134.88377   180.00000     4.36869   135.83108   180.00000     4.36062
    11.20000   133.74462   180.00000     4.36779   134.66476   180.00000     4.35953
    11.30000   132.54030   180.00000     4.36689   133.42963   180.00000     4.35846
    11.40000   131.27029   180.00000     4.36599   132.12506   180.00000     4.35740
    11.50000   129.81241   180.00000     4.36502   130.62531   180.00000     4.35629
    11.60000   128.22573   180.00000     4.36403   128.99089   180.00000     4.35520
    11.70000   126.44765   180.00000     4.36301   127.15736   180.00000     4.35412
    11.80000   124.41446   180.00000     4.36193   125.05934   180.00000     4.35305
    11.90000   122.06137   180.00000     4.36081   122.63088   180.00000     4.35203
    12.00000   119.25998   180.00000     4.35962   119.74173   180.00000     4.35107
    12.10000   115.81653   180.00000     4.35833   116.19699   180.00000     4.35021
    12.20000   111.46957   180.00000     4.35695   111.73790   180.00000     4.34950
    12.30000   105.69661   180.00000     4.35547   105.84945   180.00000     4.34897
    12.40000    96.03949   180.00000     4.35392    96.07939   180.00000     4.34860
    12.50000    90.00000   180.00000     4.35359    90.00000   180.00000     4.34851
    12.60000    90.00000   180.00000     4.35355    90.00000   180.00000     4.34847
    12.70000    90.00000   180.00000     4.35350    90.00000   180.00000     4.34842
    12.80000    90.00000   180.00000     4.35346    90.00000   180.00000     4.34838
    12.90000    90.00000   180.00000     4.35342    90.00000   180.00000     4.34834
    13.00000    90.00000   180.00000     4.35337    90.00000   180.00000     4.34829
    13.10000    90.00000   180.00000     4.35333    90.00000   180.00000     4.34825
    13.20000    90.00000   180.00000     4.35329    90.00000   180.00000     4.34820
    13.30000    90.00000   180.00000     4.35324    90.00000   180.00000     4.34816
    13.40000    90.00000   180.00000     4.35320    90.00000   180.00000     4.34811
    13.50000    90.00000   180.00000     4.35315    90.00000   180.00000     4.34807
    13.60000    90.00000   180.00000     4.35311    90.00000   180.00000     4.34802
    13.70000    90.00000   180.00000     4.35307    90.00000   180.00000     4.34798
    13.80000    90.00000   180.00000     4.35302    90.00000   180.00000     4.34793
    13.90000    90.00000   180.00000     4.35298    90.00000   180.00000     4.34789
    14.00000    90.00000   180.00000     4.35294    90.00000   180.00000     4.34784
    14.10000    90.00000   180.00000     4.35289    90.00000   180.00000     4.34780
    14.20000    90.00000   180.00000     4.35285    90.00000   180.00000     4.34775
    14.30000    90.00000   180.00000     4.35280    90.00000   180.00000     4.34771
    14.40000    90.00000   180.00000     4.35276    90.00000   180.00000     4.34766
    14.50000    90.00000   180.00000     4.35272    90.00000   180.00000     4.34762
    14.60000    90.00000   180.00000     4.35267    90.00000   180.00000     4.34757
    14.70000    90.00000   180.00000     4.35263    90.00000   180.00000     4.34753
    14.80000    90.00000   180.00000     4.35259    90.00000   180.00000     4.34748
    14.90000    90.00000   180.00000     4.35254    90.00000   180.00000     4.34744
    15.00000    90.00000   180.00000     4.35250    90.00000   180.00000     4.34739
    15.10000    90.00000   180.00000     4.35245    90.00000   180.00000     4.34735
    15.20000    90.00000   180.00000     4.35241    90.00000   180.00000     4.34730
    15.30000    90.00000   180.00000     4.35237    90.00000   180.00000     4.34726
    15.40000    90.00000   180.00000     4.35232    90.00000   180.00000     4.34721
    15.50000    90.00000   180.00000     4.35228    90.00000   180.00000     4.34717
    15.60000    90.00000   180.00000     4.35223    90.00000   180.00000     4.34712
    15.70000    90.00000   180.00000     4.35219    90.00000   180.00000     4.34708
    15.80000    90.00000   180.00000     4.35215    90.00000   180.00000     4.34703
    15.90000    90.00000   180.00000     4.35210    90.00000   180.00000     4.34699
    16.00000    90.00000   180.00000     4.35206    90.00000   180.00000     4.34695
    16.10000    90.00000   180.00000     4.35201    90.00000   180.00000     4.34690
    16.20000    90.00000   180.00000     4.35197    90.00000   180.00000     4.34686
    16.30000    90.00000   180.00000     4.35193    90.00000   180.00000     4.34681
    16.40000    90.00000   180.00000     4.35188    90.00000   180.00000     4.34677
    16.50000    90.00000   180.00000     4.35184    90.00000   180.00000     4.34672
    16.60000    90.00000   180.00000     4.35180    90.00000   180.00000     4.34668
    16.70000    90.00000   180.00000     4.35175    90.00000   180.00000     4.34663
    16.80000    90.00000   180.00000     4.35171    90.00000   180.00000     4.34659
    16.90000    90.00000   180.00000     4.35166    90.00000   180.00000     4.34654
    17.00000    90.00000   180.00000     4.35162    90.00000   180.00000     4.34650
    17.10000    90.00000   180.00000     4.35158    90.00000   180.00000     4.34645
    17.20000    90.00000   180.00000     4.35153    90.00000   180.00000     4.34641
    17.30000    90.00000   180.00000     4.35149    90.00000   180.00000     4.34636
    17.40000    90.00000   180.00000     4.35144    90.00000   180.00000     4.34632
    17.50000    90.00000   180.00000     4.35140    90.00000   180.00000     4.34627
    17.60000    90.00000   180.00000     4.35136    90.00000   180.00000     4.34623
    17.70000    90.00000   180.00000     4.35131    90.00000   180.00000     4.34618
    17.80000    90.00000   180.00000     4.35127    90.00000   180.00000     4.34614
    17.90000    90.00000   180.00000     4.35122    90.00000   180.00000     4.34609
    18.00000    90.00000   180.00000     4.35118    90.00000   180.00000     4.34605
    18.10000    90.00000   180.00000     4.35114    90.00000   180.00000     4.34600
    18.20000    90.00000   180.00000     4.35109    90.00000   180.00000     4.34596
    18.30000    90.00000   180.00000     4.35105    90.00000   180.00000     4.34591
    18.40000    90.00000   180.00000     4.35100    90.00000   180.00000     4.34587
    18.50000    90.00000   180.00000     4.35096    90.00000   180.00000     4.34582
    18.60000    90.00000   180.00000     4.35091    90.00000   180.00000     4.34578
    18.70000    90.00000   180.00000     4.35087    90.00000   180.00000     4.34573
    18.80000    90.00000   180.00000     4.35083    90.00000   180.00000     4.34568
    18.90000    90.00000   180.00000     4.35078    90.00000   180.00000     4.34564
    19.00000    90.00000   180.00000     4.35074    90.00000   180.00000     4.34559
    19.10000    90.00000   180.00000     4.35069    90.00000   180.00000     4.34555
    19.20000    90.00000   180.00000     4.35065    90.00000   180.00000     4.34550
    19.30000    90.00000   180.00000     4.35061    90.00000   180.00000     4.34546
    19.40000    90.00000   180.00000     4.35056    90.00000   180.00000     4.34541
    19.50000    90.00000   180.00000     4.35052    90.00000   180.00000     4.34537
    19.60000    90.00000   180.00000     4.35047    90.00000   180.00000     4.34532
    19.70000    90.00000   180.00000     4.35043    90.00000   180.00000     4.34528
    19.80000    90.00000   180.00000     4.35039    90.00000   180.00000     4.34523
    19.90000    90.00000   180.00000     4.35034    90.00000   180.00000     4.34519
    20.00000    90.00000   180.00000     4.35030    90.00000   180.00000     4.34514
    20.10000    90.00000   180.00000     4.35025    90.00000   180.00000     4.34510
    20.20000    90.00000   180.00000     4.35021    90.00000   180.00000     4.34505
    20.30000    90.00000   180.00000     4.35017    90.00000   180.00000     4.34501
    20.40000    90.00000   180.00000     4.35012    90.00000   180.00000     4.34496
    20.50000    90.00000   180.00000     4.35008    90.00000   180.00000     4.34492
    20.60000    90.00000   180.00000     4.35003    90.00000   180.00000     4.34487
    20.70000    90.00000   180.00000     4.34999    90.00000   180.00000     4.34483
    20.80000    90.00000   180.00000     4.34994    90.00000   180.00000     4.34478
    20.90000    90.00000   180.00000     4.34990    90.00000   180.00000     4.34474
    21.00000    90.00000   180.00000     4.34986    90.00000   180.00000     4.34469
    21.10000    90.00000   180.00000     4.34981    90.00000   180.00000     4.34465
    21.20000    90.00000   180.00000     4.34977    90.00000   180.00000     4.34460
    21.30000    90.00000   180.00000     4.34972    90.00000   180.00000     4.34456
    21.40000    90.00000   180.00000     4.34968    90.00000   180.00000     4.34451
    21.50000    90.00000   180.00000     4.34963    90.00000   180.00000     4.34447
    21.60000    90.00000   180.00000     4.34959    90.00000   180.00000     4.34442
    21.70000    90.00000   180.00000     4.34955    90.00000   180.00000     4.34438
    21.80000    90.00000   180.00000     4.34950    90.00000   180.00000     4.34433
    21.90000    90.00000   180.00000     4.34946    90.00000   180.00000     4.34428
    22.00000    90.00000   180.00000     4.34941    90.00000   180.00000     4.34424
    22.10000    90.00000   180.00000     4.34937    90.00000   180.00000     4.34419
    22.20000    90.00000   180.00000     4.34932    90.00000   180.00000     4.34415
    22.30000    90.00000   180.00000     4.34928    90.00000   180.00000     4.34410
    22.40000    90.00000   180.00000     4.34924    90.00000   180.00000     4.34406
    22.50000    90.00000   180.00000     4.34919    90.00000   180.00000     4.34401
    22.60000    90.00000   180.00000     4.34915    90.00000   180.00000     4.34397
    22.70000    90.00000   180.00000     4.34910    90.00000   180.00000     4.34392
    22.80000    90.00000   180.00000     4.34906    90.00000   180.00000     4.34388
    22.90000    90.00000   180.00000     4.34901    90.00000   180.00000     4.34383
    23.00000    90.00000   180.00000     4.34897    90.00000   180.00000     4.34379
    23.10000    90.00000   180.00000     4.34893    90.00000   180.00000     4.34374
    23.20000    90.00000   180.00000     4.34888    90.00000   180.00000     4.34370
    23.30000    90.00000   180.00000     4.34884    90.00000   180.00000     4.34365
