 # applied field (T), theta (degree), phi (degree), abs [muB/unitcell], abs [T]
       0.00000000      90.00000000      44.57179749      34.70423081       1.16015552
       0.10000000      90.00000000      15.43978745      34.53452289       1.15448222
       0.20000000      90.00000000     360.00000000      34.50216108       1.15340037
       0.30000000      90.00000000     360.00000000      34.50246045       1.15341038
       0.40000000      90.00000000     360.00000000      34.50275979       1.15342039
       0.50000000      90.00000000     360.00000000      34.50305908       1.15343039
       0.60000000      90.00000000     360.00000000      34.50335834       1.15344040
       0.70000000      90.00000000     360.00000000      34.50365756       1.15345040
       0.80000000      90.00000000     360.00000000      34.50395675       1.15346040
       0.90000000      90.00000000     360.00000000      34.50425589       1.15347040
       1.00000000      90.00000000     360.00000000      34.50455500       1.15348040
       1.10000000      90.00000000     360.00000000      34.50485407       1.15349040
       1.20000000      90.00000000     360.00000000      34.50515310       1.15350040
       1.30000000      90.00000000     360.00000000      34.50545210       1.15351039
       1.40000000      90.00000000     360.00000000      34.50575106       1.15352039
       1.50000000      90.00000000     360.00000000      34.50604998       1.15353038
       1.60000000      90.00000000     360.00000000      34.50634886       1.15354037
       1.70000000      90.00000000     360.00000000      34.50664771       1.15355036
       1.80000000      90.00000000     360.00000000      34.50694652       1.15356035
       1.90000000      90.00000000     360.00000000      34.50724529       1.15357034
       2.00000000      90.00000000     360.00000000      34.50754402       1.15358032
       2.10000000      90.00000000     360.00000000      34.50784272       1.15359031
       2.20000000      90.00000000     360.00000000      34.50814138       1.15360029
       2.30000000      90.00000000     360.00000000      34.50844000       1.15361028
       2.40000000      90.00000000     360.00000000      34.50873859       1.15362026
       2.50000000      90.00000000     360.00000000      34.50903714       1.15363024
       2.60000000      90.00000000     360.00000000      34.50933565       1.15364022
       2.70000000      90.00000000     360.00000000      34.50963413       1.15365020
       2.80000000      90.00000000     360.00000000      34.50993256       1.15366017
       2.90000000      90.00000000     360.00000000      34.51023096       1.15367015
       3.00000000      90.00000000     360.00000000      34.51052933       1.15368012
       3.10000000      90.00000000     360.00000000      34.51082766       1.15369010
       3.20000000      90.00000000     360.00000000      34.51112595       1.15370007
       3.30000000      90.00000000     360.00000000      34.51142420       1.15371004
       3.40000000      90.00000000     360.00000000      34.51172242       1.15372001
       3.50000000      90.00000000     360.00000000      34.51202060       1.15372998
       3.60000000      90.00000000     360.00000000      34.51231874       1.15373994
       3.70000000      90.00000000     360.00000000      34.51261685       1.15374991
       3.80000000      90.00000000     360.00000000      34.51291492       1.15375987
       3.90000000      90.00000000     360.00000000      34.51321295       1.15376984
       4.00000000      90.00000000     360.00000000      34.51351095       1.15377980
       4.10000000      90.00000000     360.00000000      34.51380891       1.15378976
       4.20000000      90.00000000     360.00000000      34.51410683       1.15379972
       4.30000000      90.00000000     360.00000000      34.51440472       1.15380968
       4.40000000      90.00000000     360.00000000      34.51470257       1.15381963
       4.50000000      90.00000000     360.00000000      34.51500038       1.15382959
       4.60000000      90.00000000     360.00000000      34.51529816       1.15383954
       4.70000000      90.00000000     360.00000000      34.51559590       1.15384950
       4.80000000      90.00000000     360.00000000      34.51589360       1.15385945
       4.90000000      90.00000000     360.00000000      34.51619127       1.15386940
       5.00000000      90.00000000     360.00000000      34.51648890       1.15387935
       5.10000000      90.00000000     360.00000000      34.51678650       1.15388930
       5.20000000      90.00000000     360.00000000      34.51708406       1.15389925
       5.30000000      90.00000000     360.00000000      34.51738158       1.15390919
       5.40000000      90.00000000     360.00000000      34.51767907       1.15391914
       5.50000000      90.00000000     360.00000000      34.51797652       1.15392908
       5.60000000      90.00000000     360.00000000      34.51827393       1.15393902
       5.70000000      90.00000000     360.00000000      34.51857131       1.15394896
       5.80000000      90.00000000     360.00000000      34.51886865       1.15395890
       5.90000000      90.00000000     360.00000000      34.51916596       1.15396884
       6.00000000      90.00000000     360.00000000      34.51946324       1.15397878
       6.10000000      90.00000000     360.00000000      34.51976052       1.15398872
       6.20000000      90.00000000     360.00000000      34.52005777       1.15399866
       6.30000000      90.00000000     360.00000000      34.52035498       1.15400859
       6.40000000      90.00000000     360.00000000      34.52065216       1.15401853
       6.50000000      90.00000000     360.00000000      34.52094930       1.15402846
       6.60000000      90.00000000     360.00000000      34.52124641       1.15403839
       6.70000000      90.00000000     360.00000000      34.52154348       1.15404832
       6.80000000      90.00000000     360.00000000      34.52184051       1.15405825
       6.90000000      90.00000000     360.00000000      34.52213751       1.15406818
       7.00000000      90.00000000     360.00000000      34.52243447       1.15407811
       7.10000000      90.00000000     360.00000000      34.52273139       1.15408804
       7.20000000      90.00000000     360.00000000      34.52302828       1.15409796
       7.30000000      90.00000000     360.00000000      34.52332513       1.15410788
       7.40000000      90.00000000     360.00000000      34.52362195       1.15411781
       7.50000000      90.00000000     360.00000000      34.52391873       1.15412773
       7.60000000      90.00000000     360.00000000      34.52421548       1.15413765
       7.70000000      90.00000000     360.00000000      34.52451219       1.15414757
       7.80000000      90.00000000     360.00000000      34.52480886       1.15415748
       7.90000000      90.00000000     360.00000000      34.52510550       1.15416740
       8.00000000      90.00000000     360.00000000      34.52540210       1.15417732
       8.10000000      90.00000000     360.00000000      34.52569866       1.15418723
       8.20000000      90.00000000     360.00000000      34.52599519       1.15419714
       8.30000000      90.00000000     360.00000000      34.52629168       1.15420706
       8.40000000      90.00000000     360.00000000      34.52658814       1.15421697
       8.50000000      90.00000000     360.00000000      34.52688456       1.15422688
       8.60000000      90.00000000     360.00000000      34.52718095       1.15423678
       8.70000000      90.00000000     360.00000000      34.52747730       1.15424669
       8.80000000      90.00000000     360.00000000      34.52777361       1.15425660
       8.90000000      90.00000000     360.00000000      34.52806989       1.15426650
       9.00000000      90.00000000     360.00000000      34.52836613       1.15427640
       9.10000000      90.00000000     360.00000000      34.52866233       1.15428631
       9.20000000      90.00000000     360.00000000      34.52895850       1.15429621
       9.30000000      90.00000000     360.00000000      34.52925464       1.15430611
       9.40000000      90.00000000     360.00000000      34.52955074       1.15431600
       9.50000000      90.00000000     360.00000000      34.52984680       1.15432590
       9.60000000      90.00000000     360.00000000      34.53014283       1.15433580
       9.70000000      90.00000000     360.00000000      34.53043882       1.15434569
       9.80000000      90.00000000     360.00000000      34.53073477       1.15435559
       9.90000000      90.00000000     360.00000000      34.53103069       1.15436548
      10.00000000      90.00000000     360.00000000      34.53132657       1.15437537
      10.10000000      90.00000000     360.00000000      34.53162242       1.15438526
      10.20000000      90.00000000     360.00000000      34.53191823       1.15439515
      10.30000000      90.00000000     360.00000000      34.53221401       1.15440504
      10.40000000      90.00000000     360.00000000      34.53250975       1.15441492
      10.50000000      90.00000000     360.00000000      34.53280546       1.15442481
      10.60000000      90.00000000     360.00000000      34.53310113       1.15443469
      10.70000000      90.00000000     360.00000000      34.53339676       1.15444458
      10.80000000      90.00000000     360.00000000      34.53369236       1.15445446
      10.90000000      90.00000000     360.00000000      34.53398793       1.15446434
      11.00000000      90.00000000     360.00000000      34.53428345       1.15447422
      11.10000000      90.00000000     360.00000000      34.53457895       1.15448410
      11.20000000      90.00000000     360.00000000      34.53487441       1.15449397
      11.30000000      90.00000000     360.00000000      34.53516983       1.15450385
      11.40000000      90.00000000     360.00000000      34.53546522       1.15451372
      11.50000000      90.00000000     360.00000000      34.53576057       1.15452360
      11.60000000      90.00000000     360.00000000      34.53605589       1.15453347
      11.70000000      90.00000000     360.00000000      34.53635117       1.15454334
      11.80000000      90.00000000     360.00000000      34.53664642       1.15455321
      11.90000000      90.00000000     360.00000000      34.53694163       1.15456308
      12.00000000      90.00000000     360.00000000      34.53723681       1.15457295
      12.10000000      90.00000000     360.00000000      34.53753196       1.15458282
      12.20000000      90.00000000     360.00000000      34.53782707       1.15459268
      12.30000000      90.00000000     360.00000000      34.53812214       1.15460255
      12.40000000      90.00000000     360.00000000      34.53841718       1.15461241
      12.50000000      90.00000000     360.00000000      34.53871219       1.15462227
      12.60000000      90.00000000     360.00000000      34.53900716       1.15463213
      12.70000000      90.00000000     360.00000000      34.53930209       1.15464199
      12.80000000      90.00000000     360.00000000      34.53959700       1.15465185
      12.90000000      90.00000000     360.00000000      34.53989187       1.15466171
      13.00000000      90.00000000     360.00000000      34.54018670       1.15467156
      13.10000000      90.00000000     360.00000000      34.54048150       1.15468142
      13.20000000      90.00000000     360.00000000      34.54077626       1.15469127
      13.30000000      90.00000000     360.00000000      34.54107100       1.15470112
      13.40000000      90.00000000     360.00000000      34.54136569       1.15471098
      13.50000000      90.00000000     360.00000000      34.54166036       1.15472083
      13.60000000      90.00000000     360.00000000      34.54195499       1.15473068
      13.70000000      90.00000000     360.00000000      34.54224958       1.15474052
      13.80000000      90.00000000     360.00000000      34.54254415       1.15475037
      13.90000000      90.00000000     360.00000000      34.54283868       1.15476022
      14.00000000      90.00000000     360.00000000      34.54313317       1.15477006
      14.10000000      90.00000000     360.00000000      34.54342764       1.15477991
      14.20000000      90.00000000     360.00000000      34.54372207       1.15478975
      14.30000000      90.00000000     360.00000000      34.54401647       1.15479959
      14.40000000      90.00000000     360.00000000      34.54431083       1.15480943
      14.50000000      90.00000000     360.00000000      34.54460517       1.15481927
      14.60000000      90.00000000     360.00000000      34.54489949       1.15482911
      14.70000000      90.00000000     360.00000000      34.54519378       1.15483895
      14.80000000      90.00000000     360.00000000      34.54548807       1.15484879
      14.90000000      90.00000000     360.00000000      34.54578236       1.15485862
      15.00000000      90.00000000     360.00000000      34.54607668       1.15486846
      15.10000000      90.00000000     360.00000000      34.54637102       1.15487830
      15.20000000      90.00000000     360.00000000      34.54666534       1.15488814
      15.30000000      90.00000000     360.00000000      34.54695958       1.15489798
      15.40000000      90.00000000     360.00000000      34.54725372       1.15490781
      15.50000000      90.00000000     360.00000000      34.54754778       1.15491764
      15.60000000      90.00000000     360.00000000      34.54784178       1.15492747
      15.70000000      90.00000000     360.00000000      34.54813574       1.15493730
      15.80000000      90.00000000     360.00000000      34.54842965       1.15494712
      15.90000000      90.00000000     360.00000000      34.54872353       1.15495695
      16.00000000      90.00000000     360.00000000      34.54901737       1.15496677
      16.10000000      90.00000000     360.00000000      34.54931117       1.15497659
      16.20000000      90.00000000     360.00000000      34.54960494       1.15498641
      16.30000000      90.00000000     360.00000000      34.54989868       1.15499623
      16.40000000      90.00000000     360.00000000      34.55019238       1.15500605
      16.50000000      90.00000000     360.00000000      34.55048605       1.15501587
      16.60000000      90.00000000     360.00000000      34.55077968       1.15502568
      16.70000000      90.00000000     360.00000000      34.55107329       1.15503550
      16.80000000      90.00000000     360.00000000      34.55136686       1.15504531
      16.90000000      90.00000000     360.00000000      34.55166039       1.15505513
      17.00000000      90.00000000     360.00000000      34.55195390       1.15506494
      17.10000000      90.00000000     360.00000000      34.55224737       1.15507475
      17.20000000      90.00000000     360.00000000      34.55254081       1.15508456
      17.30000000      90.00000000     360.00000000      34.55283422       1.15509437
      17.40000000      90.00000000     360.00000000      34.55312760       1.15510417
      17.50000000      90.00000000     360.00000000      34.55342094       1.15511398
      17.60000000      90.00000000     360.00000000      34.55371426       1.15512379
      17.70000000      90.00000000     360.00000000      34.55400754       1.15513359
      17.80000000      90.00000000     360.00000000      34.55430079       1.15514339
      17.90000000      90.00000000     360.00000000      34.55459402       1.15515320
      18.00000000      90.00000000     360.00000000      34.55488721       1.15516300
      18.10000000      90.00000000     360.00000000      34.55518036       1.15517280
      18.20000000      90.00000000     360.00000000      34.55547349       1.15518260
      18.30000000      90.00000000     360.00000000      34.55576658       1.15519240
      18.40000000      90.00000000     360.00000000      34.55605965       1.15520219
      18.50000000      90.00000000     360.00000000      34.55635268       1.15521199
      18.60000000      90.00000000     360.00000000      34.55664568       1.15522178
      18.70000000      90.00000000     360.00000000      34.55693865       1.15523158
      18.80000000      90.00000000     360.00000000      34.55723158       1.15524137
      18.90000000      90.00000000     360.00000000      34.55752449       1.15525116
      19.00000000      90.00000000     360.00000000      34.55781737       1.15526095
      19.10000000      90.00000000     360.00000000      34.55811021       1.15527074
      19.20000000      90.00000000     360.00000000      34.55840302       1.15528053
      19.30000000      90.00000000     360.00000000      34.55869581       1.15529032
      19.40000000      90.00000000     360.00000000      34.55898856       1.15530011
      19.50000000      90.00000000     360.00000000      34.55928128       1.15530989
      19.60000000      90.00000000     360.00000000      34.55957397       1.15531968
      19.70000000      90.00000000     360.00000000      34.55986663       1.15532946
      19.80000000      90.00000000     360.00000000      34.56015926       1.15533924
      19.90000000      90.00000000     360.00000000      34.56045186       1.15534902
      20.00000000      90.00000000     360.00000000      34.56074443       1.15535880
      20.10000000      90.00000000     360.00000000      34.56103697       1.15536858
      20.20000000      90.00000000     360.00000000      34.56132947       1.15537836
      20.30000000      90.00000000     360.00000000      34.56162195       1.15538814
      20.40000000      90.00000000     360.00000000      34.56191440       1.15539792
      20.50000000      90.00000000     360.00000000      34.56220682       1.15540769
      20.60000000      90.00000000     360.00000000      34.56249921       1.15541747
      20.70000000      90.00000000     360.00000000      34.56279157       1.15542724
      20.80000000      90.00000000     360.00000000      34.56308390       1.15543701
      20.90000000      90.00000000     360.00000000      34.56337620       1.15544678
      21.00000000      90.00000000     360.00000000      34.56366848       1.15545655
      21.10000000      90.00000000     360.00000000      34.56396072       1.15546632
      21.20000000      90.00000000     360.00000000      34.56425293       1.15547609
      21.30000000      90.00000000     360.00000000      34.56454512       1.15548586
      21.40000000      90.00000000     360.00000000      34.56483728       1.15549563
      21.50000000      90.00000000     360.00000000      34.56512940       1.15550539
      21.60000000      90.00000000     360.00000000      34.56542150       1.15551516
      21.70000000      90.00000000     360.00000000      34.56571358       1.15552492
      21.80000000      90.00000000     360.00000000      34.56600562       1.15553468
      21.90000000      90.00000000     360.00000000      34.56629763       1.15554445
      22.00000000      90.00000000     360.00000000      34.56658962       1.15555421
      22.10000000      90.00000000     360.00000000      34.56688158       1.15556397
      22.20000000      90.00000000     360.00000000      34.56717351       1.15557373
      22.30000000      90.00000000     360.00000000      34.56746542       1.15558349
      22.40000000      90.00000000     360.00000000      34.56775729       1.15559324
      22.50000000      90.00000000     360.00000000      34.56804914       1.15560300
      22.60000000      90.00000000     360.00000000      34.56834096       1.15561275
      22.70000000      90.00000000     360.00000000      34.56863276       1.15562251
      22.80000000      90.00000000     360.00000000      34.56892453       1.15563226
      22.90000000      90.00000000     360.00000000      34.56921627       1.15564202
      23.00000000      90.00000000     360.00000000      34.56950799       1.15565177
