 # applied field (T), theta (degree), phi (degree), abs [muB/unitcell], abs [T]
       0.00000000       0.00000000       0.00000000      46.45194662       1.55287933
       0.10000000       0.39871186     360.00000000      46.45194960       1.55287942
       0.20000000       0.79742486     360.00000000      46.45195856       1.55287972
       0.30000000       1.19614012     360.00000000      46.45197348       1.55288022
       0.40000000       1.59485880     360.00000000      46.45199439       1.55288092
       0.50000000       1.99358201     360.00000000      46.45202128       1.55288182
       0.60000000       2.33544870     360.00000000      46.45204987       1.55288278
       0.70000000       2.73418333     360.00000000      46.45208803       1.55288405
       0.80000000       3.13292573     360.00000000      46.45213219       1.55288553
       0.90000000       3.53167702     360.00000000      46.45218237       1.55288721
       1.00000000       3.93043834     360.00000000      46.45223859       1.55288909
       1.10000000       4.32921080     360.00000000      46.45230086       1.55289117
       1.20000000       4.72799552     360.00000000      46.45236920       1.55289345
       1.30000000       5.12679363     360.00000000      46.45244362       1.55289594
       1.40000000       5.52560622     360.00000000      46.45252414       1.55289863
       1.50000000       5.92443442     360.00000000      46.45261079       1.55290153
       1.60000000       6.32327932     360.00000000      46.45270359       1.55290463
       1.70000000       6.77902473     360.00000000      46.45281494       1.55290835
       1.80000000       7.17790917     360.00000000      46.45292085       1.55291189
       1.90000000       7.57681376     360.00000000      46.45303298       1.55291564
       2.00000000       7.97573957     360.00000000      46.45315134       1.55291960
       2.10000000       8.37468770     360.00000000      46.45327597       1.55292377
       2.20000000       8.77365920     360.00000000      46.45340689       1.55292814
       2.30000000       9.22955768     360.00000000      46.45356122       1.55293330
       2.40000000       9.62858290     360.00000000      46.45370557       1.55293813
       2.50000000      10.02763482     360.00000000      46.45385628       1.55294316
       2.60000000      10.48362940     360.00000000      46.45403295       1.55294907
       2.70000000      10.88274207     360.00000000      46.45419725       1.55295456
       2.80000000      11.33880891     360.00000000      46.45438925       1.55296098
       2.90000000      11.73798702     360.00000000      46.45456725       1.55296693
       3.00000000      12.19413142     360.00000000      46.45477470       1.55297387
       3.10000000      12.65031935     360.00000000      46.45499037       1.55298108
       3.20000000      13.04960672     360.00000000      46.45518948       1.55298773
       3.30000000      13.50588013     360.00000000      46.45542074       1.55299546
       3.40000000      13.96220123     360.00000000      46.45566029       1.55300347
       3.50000000      14.41857140     360.00000000      46.45590814       1.55301176
       3.60000000      14.87499203     360.00000000      46.45616430       1.55302032
       3.70000000      15.33146446     360.00000000      46.45642878       1.55302916
       3.80000000      15.78799002     360.00000000      46.45670157       1.55303828
       3.90000000      16.24456999     360.00000000      46.45698268       1.55304768
       4.00000000      16.75820376     360.00000000      46.45730435       1.55305843
       4.10000000      17.21490365     360.00000000      46.45760297       1.55306842
       4.20000000      17.72867564     360.00000000      46.45794408       1.55307982
       4.30000000      18.18550087     360.00000000      46.45826010       1.55309038
       4.40000000      18.69941703     360.00000000      46.45862049       1.55310243
       4.50000000      19.21341186     360.00000000      46.45899095       1.55311482
       4.60000000      19.72748686     360.00000000      46.45937139       1.55312753
       4.70000000      20.29870204     360.00000000      46.45980107       1.55314190
       4.80000000      20.81295107     360.00000000      46.46020216       1.55315531
       4.90000000      21.38436323     360.00000000      46.46065432       1.55317042
       5.00000000      21.95588162     360.00000000      46.46111800       1.55318592
       5.10000000      22.52750783     360.00000000      46.46159297       1.55320180
       5.20000000      23.09924331     360.00000000      46.46207899       1.55321805
       5.30000000      23.72821352     360.00000000      46.46262144       1.55323618
       5.40000000      24.35731953     360.00000000      46.46317636       1.55325473
       5.50000000      24.98656277     360.00000000      46.46374334       1.55327369
       5.60000000      25.67310787     360.00000000      46.46437065       1.55329466
       5.70000000      26.35981944     360.00000000      46.46501092       1.55331606
       5.80000000      27.04669848     360.00000000      46.46566341       1.55333787
       5.90000000      27.79095287     360.00000000      46.46637899       1.55336180
       6.00000000      28.59262941     360.00000000      46.46715936       1.55338788
       6.10000000      29.45177815     360.00000000      46.46800581       1.55341618
       6.20000000      30.36845192     360.00000000      46.46891905       1.55344671
       6.30000000      31.28542484     360.00000000      46.46984406       1.55347763
       6.40000000      90.00000000     360.00000000      46.48901038       1.55411836
       6.50000000      90.00000000     360.00000000      46.48905429       1.55411983
       6.60000000      90.00000000     360.00000000      46.48909820       1.55412129
       6.70000000      90.00000000     360.00000000      46.48914211       1.55412276
       6.80000000      90.00000000     360.00000000      46.48918603       1.55412423
       6.90000000      90.00000000     360.00000000      46.48922996       1.55412570
       7.00000000      90.00000000     360.00000000      46.48927389       1.55412717
       7.10000000      90.00000000     360.00000000      46.48931783       1.55412864
       7.20000000      90.00000000     360.00000000      46.48936177       1.55413011
       7.30000000      90.00000000     360.00000000      46.48940572       1.55413158
       7.40000000      90.00000000     360.00000000      46.48944967       1.55413304
       7.50000000      90.00000000     360.00000000      46.48949363       1.55413451
       7.60000000      90.00000000     360.00000000      46.48953759       1.55413598
       7.70000000      90.00000000     360.00000000      46.48958156       1.55413745
       7.80000000      90.00000000     360.00000000      46.48962553       1.55413892
       7.90000000      90.00000000     360.00000000      46.48966951       1.55414039
       8.00000000      90.00000000     360.00000000      46.48971350       1.55414186
       8.10000000      90.00000000     360.00000000      46.48975749       1.55414334
       8.20000000      90.00000000     360.00000000      46.48980149       1.55414481
       8.30000000      90.00000000     360.00000000      46.48984549       1.55414628
       8.40000000      90.00000000     360.00000000      46.48988950       1.55414775
       8.50000000      90.00000000     360.00000000      46.48993351       1.55414922
       8.60000000      90.00000000     360.00000000      46.48997753       1.55415069
       8.70000000      90.00000000     360.00000000      46.49002155       1.55415216
       8.80000000      90.00000000     360.00000000      46.49006558       1.55415363
       8.90000000      90.00000000     360.00000000      46.49010962       1.55415511
       9.00000000      90.00000000     360.00000000      46.49015366       1.55415658
       9.10000000      90.00000000     360.00000000      46.49019770       1.55415805
       9.20000000      90.00000000     360.00000000      46.49024175       1.55415952
       9.30000000      90.00000000     360.00000000      46.49028581       1.55416100
       9.40000000      90.00000000     360.00000000      46.49032987       1.55416247
       9.50000000      90.00000000     360.00000000      46.49037394       1.55416394
       9.60000000      90.00000000     360.00000000      46.49041801       1.55416542
       9.70000000      90.00000000     360.00000000      46.49046209       1.55416689
       9.80000000      90.00000000     360.00000000      46.49050617       1.55416836
       9.90000000      90.00000000     360.00000000      46.49055026       1.55416984
      10.00000000      90.00000000     360.00000000      46.49059436       1.55417131
      10.10000000      90.00000000     360.00000000      46.49063846       1.55417279
      10.20000000      90.00000000     360.00000000      46.49068256       1.55417426
      10.30000000      90.00000000     360.00000000      46.49072668       1.55417573
      10.40000000      90.00000000     360.00000000      46.49077079       1.55417721
      10.50000000      90.00000000     360.00000000      46.49081491       1.55417868
      10.60000000      90.00000000     360.00000000      46.49085904       1.55418016
      10.70000000      90.00000000     360.00000000      46.49090318       1.55418164
      10.80000000      90.00000000     360.00000000      46.49094731       1.55418311
      10.90000000      90.00000000     360.00000000      46.49099146       1.55418459
      11.00000000      90.00000000     360.00000000      46.49103561       1.55418606
      11.10000000      90.00000000     360.00000000      46.49107976       1.55418754
      11.20000000      90.00000000     360.00000000      46.49112392       1.55418901
      11.30000000      90.00000000     360.00000000      46.49116809       1.55419049
      11.40000000      90.00000000     360.00000000      46.49121226       1.55419197
      11.50000000      90.00000000     360.00000000      46.49125644       1.55419344
      11.60000000      90.00000000     360.00000000      46.49130062       1.55419492
      11.70000000      90.00000000     360.00000000      46.49134481       1.55419640
      11.80000000      90.00000000     360.00000000      46.49138900       1.55419788
      11.90000000      90.00000000     360.00000000      46.49143320       1.55419935
      12.00000000      90.00000000     360.00000000      46.49147741       1.55420083
      12.10000000      90.00000000     360.00000000      46.49152162       1.55420231
      12.20000000      90.00000000     360.00000000      46.49156583       1.55420379
      12.30000000      90.00000000     360.00000000      46.49161005       1.55420527
      12.40000000      90.00000000     360.00000000      46.49165428       1.55420674
      12.50000000      90.00000000     360.00000000      46.49169851       1.55420822
      12.60000000      90.00000000     360.00000000      46.49174275       1.55420970
      12.70000000      90.00000000     360.00000000      46.49178699       1.55421118
      12.80000000      90.00000000     360.00000000      46.49183124       1.55421266
      12.90000000      90.00000000     360.00000000      46.49187549       1.55421414
      13.00000000      90.00000000     360.00000000      46.49191975       1.55421562
      13.10000000      90.00000000     360.00000000      46.49196402       1.55421710
      13.20000000      90.00000000     360.00000000      46.49200829       1.55421858
      13.30000000      90.00000000     360.00000000      46.49205256       1.55422006
      13.40000000      90.00000000     360.00000000      46.49209685       1.55422154
      13.50000000      90.00000000     360.00000000      46.49214113       1.55422302
      13.60000000      90.00000000     360.00000000      46.49218543       1.55422450
      13.70000000      90.00000000     360.00000000      46.49222972       1.55422598
      13.80000000      90.00000000     360.00000000      46.49227403       1.55422746
      13.90000000      90.00000000     360.00000000      46.49231834       1.55422894
      14.00000000      90.00000000     360.00000000      46.49236265       1.55423043
      14.10000000      90.00000000     360.00000000      46.49240697       1.55423191
      14.20000000      90.00000000     360.00000000      46.49245130       1.55423339
      14.30000000      90.00000000     360.00000000      46.49249563       1.55423487
      14.40000000      90.00000000     360.00000000      46.49253996       1.55423635
      14.50000000      90.00000000     360.00000000      46.49258431       1.55423783
      14.60000000      90.00000000     360.00000000      46.49262865       1.55423932
      14.70000000      90.00000000     360.00000000      46.49267301       1.55424080
      14.80000000      90.00000000     360.00000000      46.49271737       1.55424228
      14.90000000      90.00000000     360.00000000      46.49276173       1.55424377
      15.00000000      90.00000000     360.00000000      46.49280610       1.55424525
      15.10000000      90.00000000     360.00000000      46.49285047       1.55424673
      15.20000000      90.00000000     360.00000000      46.49289486       1.55424822
      15.30000000      90.00000000     360.00000000      46.49293924       1.55424970
      15.40000000      90.00000000     360.00000000      46.49298363       1.55425118
      15.50000000      90.00000000     360.00000000      46.49302803       1.55425267
      15.60000000      90.00000000     360.00000000      46.49307243       1.55425415
      15.70000000      90.00000000     360.00000000      46.49311684       1.55425564
      15.80000000      90.00000000     360.00000000      46.49316126       1.55425712
      15.90000000      90.00000000     360.00000000      46.49320568       1.55425861
      16.00000000      90.00000000     360.00000000      46.49325010       1.55426009
      16.10000000      90.00000000     360.00000000      46.49329453       1.55426158
      16.20000000      90.00000000     360.00000000      46.49333897       1.55426306
      16.30000000      90.00000000     360.00000000      46.49338341       1.55426455
      16.40000000      90.00000000     360.00000000      46.49342786       1.55426603
      16.50000000      90.00000000     360.00000000      46.49347231       1.55426752
      16.60000000      90.00000000     360.00000000      46.49351677       1.55426901
      16.70000000      90.00000000     360.00000000      46.49356123       1.55427049
      16.80000000      90.00000000     360.00000000      46.49360570       1.55427198
      16.90000000      90.00000000     360.00000000      46.49365017       1.55427347
      17.00000000      90.00000000     360.00000000      46.49369465       1.55427495
      17.10000000      90.00000000     360.00000000      46.49373914       1.55427644
      17.20000000      90.00000000     360.00000000      46.49378363       1.55427793
      17.30000000      90.00000000     360.00000000      46.49382813       1.55427942
      17.40000000      90.00000000     360.00000000      46.49387263       1.55428090
      17.50000000      90.00000000     360.00000000      46.49391714       1.55428239
      17.60000000      90.00000000     360.00000000      46.49396165       1.55428388
      17.70000000      90.00000000     360.00000000      46.49400617       1.55428537
      17.80000000      90.00000000     360.00000000      46.49405070       1.55428686
      17.90000000      90.00000000     360.00000000      46.49409523       1.55428834
      18.00000000      90.00000000     360.00000000      46.49413976       1.55428983
      18.10000000      90.00000000     360.00000000      46.49418430       1.55429132
      18.20000000      90.00000000     360.00000000      46.49422885       1.55429281
      18.30000000      90.00000000     360.00000000      46.49427340       1.55429430
      18.40000000      90.00000000     360.00000000      46.49431796       1.55429579
      18.50000000      90.00000000     360.00000000      46.49436252       1.55429728
      18.60000000      90.00000000     360.00000000      46.49440709       1.55429877
      18.70000000      90.00000000     360.00000000      46.49445167       1.55430026
      18.80000000      90.00000000     360.00000000      46.49449625       1.55430175
      18.90000000      90.00000000     360.00000000      46.49454083       1.55430324
      19.00000000      90.00000000     360.00000000      46.49458542       1.55430473
      19.10000000      90.00000000     360.00000000      46.49463002       1.55430622
      19.20000000      90.00000000     360.00000000      46.49467462       1.55430771
      19.30000000      90.00000000     360.00000000      46.49471923       1.55430921
      19.40000000      90.00000000     360.00000000      46.49476385       1.55431070
      19.50000000      90.00000000     360.00000000      46.49480846       1.55431219
      19.60000000      90.00000000     360.00000000      46.49485309       1.55431368
      19.70000000      90.00000000     360.00000000      46.49489772       1.55431517
      19.80000000      90.00000000     360.00000000      46.49494235       1.55431666
      19.90000000      90.00000000     360.00000000      46.49498700       1.55431816
      20.00000000      90.00000000     360.00000000      46.49503164       1.55431965
      20.10000000      90.00000000     360.00000000      46.49507630       1.55432114
      20.20000000      90.00000000     360.00000000      46.49512095       1.55432263
      20.30000000      90.00000000     360.00000000      46.49516562       1.55432413
      20.40000000      90.00000000     360.00000000      46.49521029       1.55432562
      20.50000000      90.00000000     360.00000000      46.49525496       1.55432711
      20.60000000      90.00000000     360.00000000      46.49529964       1.55432861
      20.70000000      90.00000000     360.00000000      46.49534433       1.55433010
      20.80000000      90.00000000     360.00000000      46.49538902       1.55433160
      20.90000000      90.00000000     360.00000000      46.49543372       1.55433309
      21.00000000      90.00000000     360.00000000      46.49547842       1.55433458
      21.10000000      90.00000000     360.00000000      46.49552313       1.55433608
      21.20000000      90.00000000     360.00000000      46.49556784       1.55433757
      21.30000000      90.00000000     360.00000000      46.49561256       1.55433907
      21.40000000      90.00000000     360.00000000      46.49565728       1.55434056
      21.50000000      90.00000000     360.00000000      46.49570201       1.55434206
      21.60000000      90.00000000     360.00000000      46.49574675       1.55434355
      21.70000000      90.00000000     360.00000000      46.49579149       1.55434505
      21.80000000      90.00000000     360.00000000      46.49583624       1.55434655
      21.90000000      90.00000000     360.00000000      46.49588099       1.55434804
      22.00000000      90.00000000     360.00000000      46.49592575       1.55434954
      22.10000000      90.00000000     360.00000000      46.49597051       1.55435104
      22.20000000      90.00000000     360.00000000      46.49601528       1.55435253
      22.30000000      90.00000000     360.00000000      46.49606006       1.55435403
      22.40000000      90.00000000     360.00000000      46.49610484       1.55435553
      22.50000000      90.00000000     360.00000000      46.49614963       1.55435702
      22.60000000      90.00000000     360.00000000      46.49619442       1.55435852
      22.70000000      90.00000000     360.00000000      46.49623922       1.55436002
      22.80000000      90.00000000     360.00000000      46.49628402       1.55436152
      22.90000000      90.00000000     360.00000000      46.49632883       1.55436301
      23.00000000      90.00000000     360.00000000      46.49637364       1.55436451
