 # applied field (T), theta (degree), phi (degree), abs for RE 3-4
     0.00000    90.00000   258.32949     0.14556    90.00000   191.67051     0.14556
     0.10000    90.00000   258.35054     0.14545    90.00000   191.64946     0.14545
     0.20000    90.00000   258.37162     0.14535    90.00000   191.62838     0.14535
     0.30000    90.00000   258.39273     0.14524    90.00000   191.60727     0.14524
     0.40000    90.00000   258.41386     0.14514    90.00000   191.58614     0.14514
     0.50000    90.00000   258.43503     0.14503    90.00000   191.56497     0.14503
     0.60000    90.00000   258.45622     0.14493    90.00000   191.54378     0.14493
     0.70000    90.00000   258.47744     0.14482    90.00000   191.52256     0.14482
     0.80000    90.00000   258.49869     0.14471    90.00000   191.50131     0.14471
     0.90000    90.00000   258.51997     0.14461    90.00000   191.48003     0.14461
     1.00000    90.00000   258.54127     0.14450    90.00000   191.45873     0.14450
     1.10000    90.00000   258.56261     0.14440    90.00000   191.43739     0.14440
     1.20000    90.00000   258.58397     0.14429    90.00000   191.41603     0.14429
     1.30000    90.00000   258.60536     0.14419    90.00000   191.39464     0.14419
     1.40000    90.00000   258.62678     0.14408    90.00000   191.37322     0.14408
     1.50000    90.00000   258.64823     0.14398    90.00000   191.35177     0.14398
     1.60000    90.00000   258.66971     0.14387    90.00000   191.33029     0.14387
     1.70000    90.00000   258.69121     0.14377    90.00000   191.30879     0.14377
     1.80000    90.00000   258.71275     0.14366    90.00000   191.28725     0.14366
     1.90000    90.00000   258.73431     0.14356    90.00000   191.26569     0.14356
     2.00000    90.00000   258.75591     0.14345    90.00000   191.24409     0.14345
     2.10000    90.00000   258.77753     0.14335    90.00000   191.22247     0.14335
     2.20000    90.00000   258.79918     0.14324    90.00000   191.20082     0.14324
     2.30000    90.00000   258.82086     0.14314    90.00000   191.17914     0.14314
     2.40000    90.00000   258.84257     0.14303    90.00000   191.15743     0.14303
     2.50000    90.00000   258.86431     0.14293    90.00000   191.13569     0.14293
     2.60000    90.00000   258.88607     0.14282    90.00000   191.11393     0.14282
     2.70000    90.00000   258.90787     0.14272    90.00000   191.09213     0.14272
     2.80000    90.00000   258.92970     0.14261    90.00000   191.07030     0.14261
     2.90000    90.00000   258.95155     0.14251    90.00000   191.04845     0.14251
     3.00000    90.00000   258.97344     0.14240    90.00000   191.02656     0.14240
     3.10000    90.00000   258.99535     0.14230    90.00000   191.00465     0.14230
     3.20000    90.00000   259.01730     0.14219    90.00000   190.98270     0.14219
     3.30000    90.00000   259.03927     0.14209    90.00000   190.96073     0.14209
     3.40000    90.00000   259.06127     0.14198    90.00000   190.93873     0.14198
     3.50000    90.00000   259.08331     0.14188    90.00000   190.91669     0.14188
     3.60000    90.00000   259.10537     0.14177    90.00000   190.89463     0.14177
     3.70000    90.00000   259.12746     0.14167    90.00000   190.87254     0.14167
     3.80000    90.00000   259.14959     0.14156    90.00000   190.85041     0.14156
     3.90000    90.00000   259.17174     0.14146    90.00000   190.82826     0.14146
     4.00000    90.00000   259.19392     0.14135    90.00000   190.80608     0.14135
     4.10000    90.00000   259.21614     0.14125    90.00000   190.78386     0.14125
     4.20000    90.00000   259.23838     0.14115    90.00000   190.76162     0.14115
     4.30000    90.00000   259.26065     0.14104    90.00000   190.73935     0.14104
     4.40000    90.00000   259.28296     0.14094    90.00000   190.71704     0.14094
     4.50000    90.00000   259.30529     0.14083    90.00000   190.69471     0.14083
     4.60000    90.00000   259.32766     0.14073    90.00000   190.67234     0.14073
     4.70000    90.00000   259.35005     0.14062    90.00000   190.64995     0.14062
     4.80000    90.00000   259.37248     0.14052    90.00000   190.62752     0.14052
     4.90000    90.00000   259.39494     0.14041    90.00000   190.60506     0.14041
     5.00000    90.00000   259.41742     0.14031    90.00000   190.58258     0.14031
     5.10000    90.00000   259.43994     0.14021    90.00000   190.56006     0.14021
     5.20000    90.00000   259.46249     0.14010    90.00000   190.53751     0.14010
     5.30000    90.00000   259.48507     0.14000    90.00000   190.51493     0.14000
     5.40000    90.00000   259.50768     0.13989    90.00000   190.49232     0.13989
     5.50000    90.00000   259.53032     0.13979    90.00000   190.46968     0.13979
     5.60000    90.00000   259.55299     0.13969    90.00000   190.44701     0.13969
     5.70000    90.00000   259.57570     0.13958    90.00000   190.42430     0.13958
     5.80000    90.00000   259.59843     0.13948    90.00000   190.40157     0.13948
     5.90000    90.00000   259.62119     0.13937    90.00000   190.37881     0.13937
     6.00000    90.00000   259.64399     0.13927    90.00000   190.35601     0.13927
     6.10000    90.00000   259.66682     0.13917    90.00000   190.33318     0.13917
     6.20000    90.00000   259.68968     0.13906    90.00000   190.31032     0.13906
     6.30000    90.00000   259.71257     0.13896    90.00000   190.28743     0.13896
     6.40000    90.00000   259.73549     0.13885    90.00000   190.26451     0.13885
     6.50000    90.00000   259.75845     0.13875    90.00000   190.24155     0.13875
     6.60000    90.00000   259.78143     0.13865    90.00000   190.21857     0.13865
     6.70000    90.00000   259.80445     0.13854    90.00000   190.19555     0.13854
     6.80000    90.00000   259.82750     0.13844    90.00000   190.17250     0.13844
     6.90000    90.00000   259.85058     0.13834    90.00000   190.14942     0.13834
     7.00000    90.00000   259.87369     0.13823    90.00000   190.12631     0.13823
     7.10000    90.00000   259.89683     0.13813    90.00000   190.10317     0.13813
     7.20000    90.00000   259.92001     0.13802    90.00000   190.07999     0.13802
     7.30000    90.00000   259.94322     0.13792    90.00000   190.05678     0.13792
     7.40000    90.00000   259.96646     0.13782    90.00000   190.03354     0.13782
     7.50000    90.00000   259.98973     0.13771    90.00000   190.01027     0.13771
     7.60000    90.00000   260.01304     0.13761    90.00000   189.98696     0.13761
     7.70000    90.00000   260.03637     0.13751    90.00000   189.96363     0.13751
     7.80000    90.00000   260.05974     0.13740    90.00000   189.94026     0.13740
     7.90000    90.00000   260.08314     0.13730    90.00000   189.91686     0.13730
     8.00000    90.00000   260.10658     0.13720    90.00000   189.89342     0.13720
     8.10000    90.00000   260.13004     0.13709    90.00000   189.86996     0.13709
     8.20000    90.00000   260.15354     0.13699    90.00000   189.84646     0.13699
     8.30000    90.00000   260.17707     0.13689    90.00000   189.82293     0.13689
     8.40000    90.00000   260.20064     0.13678    90.00000   189.79936     0.13678
     8.50000    90.00000   260.22424     0.13668    90.00000   189.77576     0.13668
     8.60000    90.00000   260.24787     0.13658    90.00000   189.75213     0.13658
     8.70000    90.00000   260.27153     0.13647    90.00000   189.72847     0.13647
     8.80000    90.00000   260.29523     0.13637    90.00000   189.70477     0.13637
     8.90000    90.00000   260.31895     0.13627    90.00000   189.68105     0.13627
     9.00000    90.00000   260.34272     0.13617    90.00000   189.65728     0.13617
     9.10000    90.00000   260.36651     0.13606    90.00000   189.63349     0.13606
     9.20000    90.00000   260.39034     0.13596    90.00000   189.60966     0.13596
     9.30000    90.00000   260.41420     0.13586    90.00000   189.58580     0.13586
     9.40000    90.00000   260.43810     0.13575    90.00000   189.56190     0.13575
     9.50000    90.00000   260.46202     0.13565    90.00000   189.53798     0.13565
     9.60000    90.00000   260.48599     0.13555    90.00000   189.51401     0.13555
     9.70000    90.00000   260.50998     0.13545    90.00000   189.49002     0.13545
     9.80000    90.00000   260.53401     0.13534    90.00000   189.46599     0.13534
     9.90000    90.00000   260.55807     0.13524    90.00000   189.44193     0.13524
    10.00000    90.00000   260.58217     0.13514    90.00000   189.41783     0.13514
    10.10000    90.00000   260.60630     0.13503    90.00000   189.39370     0.13503
    10.20000    90.00000   260.63046     0.13493    90.00000   189.36954     0.13493
    10.30000    90.00000   260.65466     0.13483    90.00000   189.34534     0.13483
    10.40000    90.00000   260.67889     0.13473    90.00000   189.32111     0.13473
    10.50000    90.00000   260.70316     0.13462    90.00000   189.29684     0.13462
    10.60000    90.00000   260.72746     0.13452    90.00000   189.27254     0.13452
    10.70000    90.00000   260.75179     0.13442    90.00000   189.24821     0.13442
    10.80000    90.00000   260.77616     0.13432    90.00000   189.22384     0.13432
    10.90000    90.00000   260.80057     0.13421    90.00000   189.19943     0.13421
    11.00000    90.00000   260.82500     0.13411    90.00000   189.17500     0.13411
    11.10000    90.00000   260.84947     0.13401    90.00000   189.15053     0.13401
    11.20000    90.00000   260.87398     0.13391    90.00000   189.12602     0.13391
    11.30000    90.00000   260.89852     0.13381    90.00000   189.10148     0.13381
    11.40000    90.00000   260.92310     0.13370    90.00000   189.07690     0.13370
    11.50000    90.00000   260.94771     0.13360    90.00000   189.05229     0.13360
    11.60000    90.00000   260.97235     0.13350    90.00000   189.02765     0.13350
    11.70000    90.00000   260.99703     0.13340    90.00000   189.00297     0.13340
    11.80000    90.00000   261.02175     0.13329    90.00000   188.97825     0.13329
    11.90000    90.00000   261.04650     0.13319    90.00000   188.95350     0.13319
    12.00000    90.00000   261.07128     0.13309    90.00000   188.92872     0.13309
    12.10000    90.00000   261.09610     0.13299    90.00000   188.90390     0.13299
    12.20000    90.00000   261.12096     0.13289    90.00000   188.87904     0.13289
    12.30000    90.00000   261.14585     0.13278    90.00000   188.85415     0.13278
    12.40000    90.00000   261.17077     0.13268    90.00000   188.82923     0.13268
    12.50000    90.00000   261.19573     0.13258    90.00000   188.80427     0.13258
    12.60000    90.00000   261.22073     0.13248    90.00000   188.77927     0.13248
    12.70000    90.00000   261.24576     0.13238    90.00000   188.75424     0.13238
    12.80000    90.00000   261.27083     0.13227    90.00000   188.72917     0.13227
    12.90000    90.00000   261.29593     0.13217    90.00000   188.70407     0.13217
    13.00000    90.00000   261.32107     0.13207    90.00000   188.67893     0.13207
    13.10000    90.00000   261.34625     0.13197    90.00000   188.65375     0.13197
    13.20000    90.00000   261.37146     0.13187    90.00000   188.62854     0.13187
    13.30000    90.00000   261.39671     0.13177    90.00000   188.60329     0.13177
    13.40000    90.00000   261.42199     0.13166    90.00000   188.57801     0.13166
    13.50000    90.00000   261.44731     0.13156    90.00000   188.55269     0.13156
    13.60000    90.00000   261.47266     0.13146    90.00000   188.52734     0.13146
    13.70000    90.00000   261.49805     0.13136    90.00000   188.50195     0.13136
    13.80000    90.00000   261.52348     0.13126    90.00000   188.47652     0.13126
    13.90000    90.00000   261.54895     0.13116    90.00000   188.45105     0.13116
    14.00000    90.00000   261.57445     0.13106    90.00000   188.42555     0.13106
    14.10000    90.00000   261.59998     0.13095    90.00000   188.40002     0.13095
    14.20000    90.00000   261.62556     0.13085    90.00000   188.37444     0.13085
    14.30000    90.00000   261.65117     0.13075    90.00000   188.34883     0.13075
    14.40000    90.00000   261.67681     0.13065    90.00000   188.32319     0.13065
    14.50000    90.00000   261.70250     0.13055    90.00000   188.29750     0.13055
    14.60000    90.00000   261.72822     0.13045    90.00000   188.27178     0.13045
    14.70000    90.00000   261.75398     0.13035    90.00000   188.24602     0.13035
    14.80000    90.00000   261.77977     0.13025    90.00000   188.22023     0.13025
    14.90000    90.00000   261.80560     0.13014    90.00000   188.19440     0.13014
    15.00000    90.00000   261.83147     0.13004    90.00000   188.16853     0.13004
    15.10000    90.00000   261.85738     0.12994    90.00000   188.14262     0.12994
    15.20000    90.00000   261.88332     0.12984    90.00000   188.11668     0.12984
    15.30000    90.00000   261.90930     0.12974    90.00000   188.09070     0.12974
    15.40000    90.00000   261.93532     0.12964    90.00000   188.06468     0.12964
    15.50000    90.00000   261.96138     0.12954    90.00000   188.03862     0.12954
    15.60000    90.00000   261.98747     0.12944    90.00000   188.01253     0.12944
    15.70000    90.00000   262.01360     0.12934    90.00000   187.98640     0.12934
    15.80000    90.00000   262.03977     0.12924    90.00000   187.96023     0.12924
    15.90000    90.00000   262.06598     0.12914    90.00000   187.93402     0.12914
    16.00000    90.00000   262.09222     0.12904    90.00000   187.90778     0.12904
    16.10000    90.00000   262.11850     0.12893    90.00000   187.88150     0.12893
    16.20000    90.00000   262.14482     0.12883    90.00000   187.85518     0.12883
    16.30000    90.00000   262.17118     0.12873    90.00000   187.82882     0.12873
    16.40000    90.00000   262.19758     0.12863    90.00000   187.80242     0.12863
    16.50000    90.00000   262.22402     0.12853    90.00000   187.77598     0.12853
    16.60000    90.00000   262.25049     0.12843    90.00000   187.74951     0.12843
    16.70000    90.00000   262.27700     0.12833    90.00000   187.72300     0.12833
    16.80000    90.00000   262.30355     0.12823    90.00000   187.69645     0.12823
    16.90000    90.00000   262.33014     0.12813    90.00000   187.66986     0.12813
    17.00000    90.00000   262.35677     0.12803    90.00000   187.64323     0.12803
    17.10000    90.00000   262.38344     0.12793    90.00000   187.61656     0.12793
    17.20000    90.00000   262.41014     0.12783    90.00000   187.58986     0.12783
    17.30000    90.00000   262.43688     0.12773    90.00000   187.56312     0.12773
    17.40000    90.00000   262.46367     0.12763    90.00000   187.53633     0.12763
    17.50000    90.00000   262.49049     0.12753    90.00000   187.50951     0.12753
    17.60000    90.00000   262.51735     0.12743    90.00000   187.48265     0.12743
    17.70000    90.00000   262.54425     0.12733    90.00000   187.45575     0.12733
    17.80000    90.00000   262.57119     0.12723    90.00000   187.42881     0.12723
    17.90000    90.00000   262.59817     0.12713    90.00000   187.40183     0.12713
    18.00000    90.00000   262.62519     0.12703    90.00000   187.37481     0.12703
    18.10000    90.00000   262.65225     0.12693    90.00000   187.34775     0.12693
    18.20000    90.00000   262.67935     0.12683    90.00000   187.32065     0.12683
    18.30000    90.00000   262.70648     0.12673    90.00000   187.29352     0.12673
    18.40000    90.00000   262.73366     0.12663    90.00000   187.26634     0.12663
    18.50000    90.00000   262.76088     0.12653    90.00000   187.23912     0.12653
    18.60000    90.00000   262.78813     0.12643    90.00000   187.21187     0.12643
    18.70000    90.00000   262.81543     0.12633    90.00000   187.18457     0.12633
    18.80000    90.00000   262.84277     0.12623    90.00000   187.15723     0.12623
    18.90000    90.00000   262.87014     0.12613    90.00000   187.12986     0.12613
    19.00000    90.00000   262.89756     0.12603    90.00000   187.10244     0.12603
    19.10000    90.00000   262.92502     0.12593    90.00000   187.07498     0.12593
    19.20000    90.00000   262.95252     0.12583    90.00000   187.04748     0.12583
    19.30000    90.00000   262.98005     0.12573    90.00000   187.01995     0.12573
    19.40000    90.00000   263.00763     0.12563    90.00000   186.99237     0.12563
    19.50000    90.00000   263.03525     0.12553    90.00000   186.96475     0.12553
    19.60000    90.00000   263.06291     0.12543    90.00000   186.93709     0.12543
    19.70000    90.00000   263.09061     0.12533    90.00000   186.90939     0.12533
    19.80000    90.00000   263.11835     0.12523    90.00000   186.88165     0.12523
    19.90000    90.00000   263.14614     0.12514    90.00000   186.85386     0.12514
    20.00000    90.00000   263.17396     0.12504    90.00000   186.82604     0.12504
    20.10000    90.00000   263.20182     0.12494    90.00000   186.79818     0.12494
    20.20000    90.00000   263.22973     0.12484    90.00000   186.77027     0.12484
    20.30000    90.00000   263.25768     0.12474    90.00000   186.74232     0.12474
    20.40000    90.00000   263.28567     0.12464    90.00000   186.71433     0.12464
    20.50000    90.00000   263.31370     0.12454    90.00000   186.68630     0.12454
    20.60000    90.00000   263.34177     0.12444    90.00000   186.65823     0.12444
    20.70000    90.00000   263.36988     0.12434    90.00000   186.63012     0.12434
    20.80000    90.00000   263.39803     0.12424    90.00000   186.60197     0.12424
    20.90000    90.00000   263.42623     0.12414    90.00000   186.57377     0.12414
    21.00000    90.00000   263.45447     0.12405    90.00000   186.54553     0.12405
    21.10000    90.00000   263.48275     0.12395    90.00000   186.51725     0.12395
    21.20000    90.00000   263.51107     0.12385    90.00000   186.48893     0.12385
    21.30000    90.00000   263.53943     0.12375    90.00000   186.46057     0.12375
    21.40000    90.00000   263.56784     0.12365    90.00000   186.43216     0.12365
    21.50000    90.00000   263.59629     0.12355    90.00000   186.40371     0.12355
    21.60000    90.00000   263.62478     0.12345    90.00000   186.37522     0.12345
    21.70000    90.00000   263.65331     0.12335    90.00000   186.34669     0.12335
    21.80000    90.00000   263.68189     0.12326    90.00000   186.31811     0.12326
    21.90000    90.00000   263.71051     0.12316    90.00000   186.28949     0.12316
    22.00000    90.00000   263.73917     0.12306    90.00000   186.26083     0.12306
    22.10000    90.00000   263.76787     0.12296    90.00000   186.23213     0.12296
    22.20000    90.00000   263.79662     0.12286    90.00000   186.20338     0.12286
    22.30000    90.00000   263.82541     0.12276    90.00000   186.17459     0.12276
    22.40000    90.00000   263.85424     0.12266    90.00000   186.14576     0.12266
    22.50000    90.00000   263.88311     0.12257    90.00000   186.11689     0.12257
    22.60000    90.00000   263.91203     0.12247    90.00000   186.08797     0.12247
    22.70000    90.00000   263.94099     0.12237    90.00000   186.05901     0.12237
    22.80000    90.00000   263.97000     0.12227    90.00000   186.03000     0.12227
    22.90000    90.00000   263.99905     0.12217    90.00000   186.00095     0.12217
    23.00000    90.00000   264.02814     0.12208    90.00000   185.97186     0.12208
    23.10000    90.00000   264.05728     0.12198    90.00000   185.94272     0.12198
    23.20000    90.00000   264.08646     0.12188    90.00000   185.91354     0.12188
    23.30000    90.00000   264.11568     0.12178    90.00000   185.88432     0.12178
