 # applied field (T), theta (degree), phi (degree), abs for RE 3-4
     0.00000     0.00000     0.00000     0.27092     0.00000     0.00000     0.27092
     0.10000     0.07919   155.24999     0.27092     0.07919   294.75001     0.27092
     0.20000     0.19176   160.51498     0.27093     0.19176   289.48502     0.27093
     0.30000     0.27068   158.97177     0.27094     0.27068   291.02823     0.27094
     0.40000     0.38343   160.50328     0.27096     0.38343   289.49672     0.27096
     0.50000     0.46226   159.59473     0.27097     0.46226   290.40527     0.27097
     0.60000     0.54113   158.94738     0.27099     0.54113   291.05262     0.27099
     0.70000     0.65365   159.83583     0.27102     0.65365   290.16417     0.27102
     0.80000     0.73239   159.32344     0.27105     0.73239   290.67656     0.27105
     0.90000     0.84477   159.94940     0.27109     0.84477   290.05060     0.27109
     1.00000     0.92335   159.52481     0.27112     0.92335   290.47519     0.27112
     1.10000     1.00189   159.16293     0.27116     1.00189   290.83707     0.27116
     1.20000     1.11392   159.63743     0.27121     1.11392   290.36257     0.27121
     1.30000     1.19226   159.31704     0.27126     1.19226   290.68296     0.27126
     1.40000     1.27054   159.03219     0.27130     1.27054   290.96781     0.27130
     1.50000     1.38211   159.40811     0.27137     1.38211   290.59189     0.27137
     1.60000     1.46014   159.14624     0.27142     1.46014   290.85376     0.27142
     1.70000     1.57138   159.45620     0.27150     1.57138   290.54380     0.27150
     1.80000     1.64913   159.21287     0.27156     1.64913   290.78713     0.27156
     1.90000     1.72678   158.98740     0.27163     1.72678   291.01260     0.27163
     2.00000     1.83742   159.24433     0.27172     1.83742   290.75567     0.27172
     2.10000     1.91475   159.03038     0.27179     1.91475   290.96962     0.27179
     2.20000     2.02492   159.24828     0.27189     2.02492   290.75172     0.27189
     2.30000     2.10190   159.04384     0.27197     2.10190   290.95616     0.27197
     2.40000     2.17874   158.84976     0.27205     2.17874   291.15024     0.27205
     2.50000     2.28816   159.03312     0.27216     2.28816   290.96688     0.27216
     2.60000     2.36461   158.84515     0.27225     2.36461   291.15485     0.27225
     2.70000     2.47346   159.00189     0.27238     2.47346   290.99811     0.27238
     2.80000     2.54948   158.81896     0.27247     2.54948   291.18104     0.27247
     2.90000     2.62533   158.64251     0.27257     2.62533   291.35749     0.27257
     3.00000     2.73329   158.77397     0.27271     2.73329   291.22603     0.27271
     3.10000     2.80867   158.60066     0.27281     2.80867   291.39934     0.27281
     3.20000     2.91595   158.71219     0.27296     2.91595   291.28781     0.27296
     3.30000     2.99085   158.54138     0.27307     2.99085   291.45862     0.27307
     3.40000     3.06555   158.37478     0.27318     3.06555   291.62522     0.27318
     3.50000     3.17179   158.46629     0.27334     3.17179   291.53371     0.27334
     3.60000     3.24595   158.30099     0.27346     3.24595   291.69901     0.27346
     3.70000     3.31990   158.13893     0.27358     3.31990   291.86107     0.27358
     3.80000     3.42503   158.21220     0.27376     3.42503   291.78780     0.27376
     3.90000     3.49841   158.05056     0.27388     3.49841   291.94944     0.27388
     4.00000     3.60271   158.10938     0.27407     3.60271   291.89062     0.27407
     4.10000     3.67551   157.94784     0.27420     3.67551   292.05216     0.27420
     4.20000     3.74806   157.78840     0.27434     3.74806   292.21160     0.27434
     4.30000     3.85112   157.83158     0.27454     3.85112   292.16842     0.27454
     4.40000     3.92305   157.67162     0.27468     3.92305   292.32838     0.27468
     4.50000     3.99473   157.51323     0.27482     3.99473   292.48677     0.27482
     4.60000     4.09648   157.54172     0.27503     4.09648   292.45828     0.27503
     4.70000     4.16750   157.38231     0.27519     4.16750   292.61769     0.27519
     4.80000     4.26830   157.39922     0.27540     4.26830   292.60078     0.27540
     4.90000     4.33864   157.23859     0.27556     4.33864   292.76141     0.27556
     5.00000     4.40871   157.07889     0.27572     4.40871   292.92111     0.27572
     5.10000     4.50810   157.08254     0.27595     4.50810   292.91746     0.27595
     5.20000     4.57746   156.92124     0.27612     4.57746   293.07876     0.27612
     5.30000     4.64654   156.76054     0.27629     4.64654   293.23946     0.27629
     5.40000     4.74447   156.75144     0.27653     4.74447   293.24856     0.27653
     5.50000     4.81282   156.58883     0.27670     4.81282   293.41117     0.27670
     5.60000     4.90967   156.56980     0.27695     4.90967   293.43020     0.27695
     5.70000     4.97728   156.40514     0.27713     4.97728   293.59486     0.27713
     5.80000     5.04458   156.24066     0.27732     5.04458   293.75934     0.27732
     5.90000     5.13989   156.20971     0.27758     5.13989   293.79029     0.27758
     6.00000     5.20642   156.04292     0.27777     5.20642   293.95708     0.27777
     6.10000     5.27265   155.87610     0.27796     5.27265   294.12390     0.27796
     6.20000     5.36637   155.83354     0.27823     5.36637   294.16646     0.27823
     6.30000     5.43181   155.66418     0.27842     5.43181   294.33582     0.27842
     6.40000     5.52437   155.61268     0.27870     5.52437   294.38732     0.27870
     6.50000     5.58902   155.44067     0.27891     5.58902   294.55933     0.27891
     6.60000     5.65334   155.26835     0.27911     5.65334   294.73165     0.27911
     6.70000     5.74426   155.20571     0.27940     5.74426   294.79429     0.27940
     6.80000     5.80777   155.03055     0.27961     5.80777   294.96945     0.27961
     6.90000     5.87096   154.85492     0.27982     5.87096   295.14508     0.27982
     7.00000     5.96019   154.78130     0.28012     5.96019   295.21870     0.28012
     7.10000     6.02256   154.60266     0.28034     6.02256   295.39734     0.28034
     7.20000     6.08461   154.42341     0.28055     6.08461   295.57659     0.28055
     7.30000     6.17213   154.33894     0.28086     6.17213   295.66106     0.28086
     7.40000     6.23334   154.15651     0.28109     6.23334   295.84349     0.28109
     7.50000     6.29423   153.97335     0.28131     6.29423   296.02665     0.28131
     7.60000     6.38003   153.87815     0.28163     6.38003   296.12185     0.28163
     7.70000     6.44008   153.69166     0.28186     6.44008   296.30834     0.28186
     7.80000     6.52466   153.58835     0.28219     6.52466   296.41165     0.28219
     7.90000     6.58387   153.39846     0.28242     6.58387   296.60154     0.28242
     8.00000     6.64275   153.20766     0.28266     6.64275   296.79234     0.28266
     8.10000     6.72559   153.09379     0.28299     6.72559   296.90621     0.28299
     8.20000     6.78363   152.89945     0.28323     6.78363   297.10055     0.28323
     8.30000     6.84135   152.70410     0.28347     6.84135   297.29590     0.28347
     8.40000     6.92245   152.57969     0.28382     6.92245   297.42031     0.28382
     8.50000     6.97933   152.38069     0.28406     6.97933   297.61931     0.28406
     8.60000     7.03589   152.18058     0.28431     7.03589   297.81942     0.28431
     8.70000     7.11525   152.04566     0.28466     7.11525   297.95434     0.28466
     8.80000     7.17098   151.84177     0.28491     7.17098   298.15823     0.28491
     8.90000     7.22638   151.63670     0.28517     7.22638   298.36330     0.28517
     9.00000     7.30402   151.49129     0.28553     7.30402   298.50871     0.28553
     9.10000     7.35861   151.28232     0.28578     7.35861   298.71768     0.28578
     9.20000     7.41288   151.07210     0.28604     7.41288   298.92790     0.28604
     9.30000     7.48881   150.91618     0.28641     7.48881   299.08382     0.28641
     9.40000     7.54228   150.70196     0.28667     7.54228   299.29804     0.28667
     9.50000     7.59544   150.48641     0.28694     7.59544   299.51359     0.28694
     9.60000     7.66968   150.31997     0.28731     7.66968   299.68003     0.28731
     9.70000     7.72205   150.10032     0.28758     7.72205   299.89968     0.28758
     9.80000     7.77412   149.87927     0.28785     7.77412   300.12073     0.28785
     9.90000     7.84671   149.70230     0.28823     7.84671   300.29770     0.28823
    10.00000     7.89800   149.47706     0.28850     7.89800   300.52294     0.28850
    10.10000     7.94901   149.25036     0.28877     7.94901   300.74964     0.28877
    10.20000     8.01998   149.06283     0.28916     8.01998   300.93717     0.28916
    10.30000     8.07023   148.83185     0.28944     8.07023   301.16815     0.28944
    10.40000     8.12021   148.59935     0.28971     8.12021   301.40065     0.28971
    10.50000     8.16991   148.36532     0.28999     8.16991   301.63468     0.28999
    10.60000     8.23886   148.16437     0.29039     8.23886   301.83563     0.29039
    10.70000     8.28784   147.92594     0.29067     8.28784   302.07406     0.29067
    10.80000     8.33657   147.68593     0.29095     8.33657   302.31407     0.29095
    10.90000     8.40400   147.47432     0.29135     8.40400   302.52568     0.29135
    11.00000     8.45204   147.22984     0.29164     8.45204   302.77016     0.29164
    11.10000     8.49983   146.98373     0.29193     8.49983   303.01627     0.29193
    11.20000     8.56581   146.76144     0.29233     8.56581   303.23856     0.29233
    11.30000     8.61295   146.51078     0.29262     8.61295   303.48922     0.29262
    11.40000     8.65985   146.25846     0.29291     8.65985   303.74154     0.29291
    11.50000     8.72444   146.02547     0.29332     8.72444   303.97453     0.29332
    11.60000     8.77073   145.76854     0.29361     8.77073   304.23146     0.29361
    11.70000     8.81680   145.50990     0.29390     8.81680   304.49010     0.29390
    11.80000     8.86267   145.24955     0.29420     8.86267   304.75045     0.29420
    11.90000     8.92557   145.00288     0.29461     8.92557   304.99712     0.29461
    12.00000     8.97087   144.73784     0.29491     8.97087   305.26216     0.29491
    12.10000     9.01598   144.47106     0.29521     9.01598   305.52894     0.29521
    12.20000     9.07767   144.21362     0.29563     9.07767   305.78638     0.29563
    12.30000     9.12226   143.94212     0.29592     9.12226   306.05788     0.29592
    12.40000     9.16668   143.66884     0.29622     9.16668   306.33116     0.29622
    12.50000     9.21094   143.39378     0.29652     9.21094   306.60622     0.29652
    12.60000     9.27119   143.12258     0.29695     9.27119   306.87742     0.29695
    12.70000     9.31499   142.84275     0.29725     9.31499   307.15725     0.29725
    12.80000     9.35865   142.56112     0.29755     9.35865   307.43888     0.29755
    12.90000     9.41788   142.27914     0.29798     9.41788   307.72086     0.29798
    13.00000     9.46114   141.99271     0.29828     9.46114   308.00729     0.29828
    13.10000     9.50428   141.70446     0.29858     9.50428   308.29554     0.29858
    13.20000     9.54730   141.41440     0.29889     9.54730   308.58560     0.29889
    13.30000     9.60539   141.11867     0.29932     9.60539   308.88133     0.29932
    13.40000     9.64809   140.82380     0.29962     9.64809   309.17620     0.29962
    13.50000     9.69069   140.52710     0.29993     9.69069   309.47290     0.29993
    13.60000     9.73322   140.22857     0.30023     9.73322   309.77143     0.30023
    13.70000     9.79034   139.91913     0.30067     9.79034   310.08087     0.30067
    13.80000     9.83262   139.61579     0.30097     9.83262   310.38421     0.30097
    13.90000     9.87485   139.31063     0.30128     9.87485   310.68937     0.30128
    14.00000     9.91702   139.00365     0.30159     9.91702   310.99635     0.30159
    14.10000     9.97338   138.68058     0.30202     9.97338   311.31942     0.30202
    14.20000    10.01539   138.36881     0.30233    10.01539   311.63119     0.30233
    14.30000    10.05739   138.05523     0.30264    10.05739   311.94477     0.30264
    14.40000    10.09937   137.73983     0.30294    10.09937   312.26017     0.30294
    14.50000    10.15517   137.40328     0.30338    10.15517   312.59672     0.30338
    14.60000    10.19708   137.08315     0.30369    10.19708   312.91685     0.30369
    14.70000    10.23901   136.76122     0.30400    10.23901   313.23878     0.30400
    14.80000    10.28097   136.43751     0.30430    10.28097   313.56249     0.30430
    14.90000    10.33642   136.08766     0.30474    10.33642   313.91234     0.30474
    15.00000    10.37840   135.75928     0.30505    10.37840   314.24072     0.30505
    15.10000    10.42044   135.42915     0.30536    10.42044   314.57085     0.30536
    15.20000    10.46254   135.09727     0.30566    10.46254   314.90273     0.30566
    15.30000    10.50473   134.76364     0.30597    10.50473   315.23636     0.30597
    15.40000    10.56012   134.39791     0.30641    10.56012   315.60209     0.30641
    15.50000    10.60244   134.05975     0.30672    10.60244   315.94025     0.30672
    15.60000    10.64488   133.71989     0.30702    10.64488   316.28011     0.30702
    15.70000    10.68744   133.37835     0.30733    10.68744   316.62165     0.30733
    15.80000    10.73014   133.03512     0.30764    10.73014   316.96488     0.30764
    15.90000    10.78582   132.65398     0.30807    10.78582   317.34602     0.30807
    16.00000    10.82878   132.30640     0.30838    10.82878   317.69360     0.30838
    16.10000    10.87190   131.95719     0.30869    10.87190   318.04281     0.30869
    16.20000    10.91521   131.60638     0.30899    10.91521   318.39362     0.30899
    16.30000    10.95870   131.25398     0.30930    10.95870   318.74602     0.30930
    16.40000    11.01508   130.85802     0.30973    11.01508   319.14198     0.30973
    16.50000    11.05896   130.50148     0.31004    11.05896   319.49852     0.31004
    16.60000    11.10308   130.14340     0.31034    11.10308   319.85660     0.31034
    16.70000    11.14743   129.78382     0.31064    11.14743   320.21618     0.31064
    16.80000    11.19202   129.42276     0.31095    11.19202   320.57724     0.31095
    16.90000    11.24949   129.01273     0.31138    11.24949   320.98727     0.31138
    17.00000    11.29462   128.64779     0.31168    11.29462   321.35221     0.31168
    17.10000    11.34002   128.28143     0.31198    11.34002   321.71857     0.31198
    17.20000    11.38572   127.91370     0.31228    11.38572   322.08630     0.31228
    17.30000    11.43173   127.54461     0.31258    11.43173   322.45539     0.31258
    17.40000    11.47806   127.17418     0.31288    11.47806   322.82582     0.31288
    17.50000    11.53739   126.74868     0.31331    11.53739   323.25132     0.31331
    17.60000    11.58441   126.37474     0.31361    11.58441   323.62526     0.31361
    17.70000    11.63178   125.99956     0.31391    11.63178   324.00044     0.31391
    17.80000    11.67952   125.62317     0.31420    11.67952   324.37683     0.31420
    17.90000    11.72763   125.24560     0.31450    11.72763   324.75440     0.31450
    18.00000    11.77613   124.86687     0.31479    11.77613   325.13313     0.31479
    18.10000    11.83794   124.42733     0.31521    11.83794   325.57267     0.31521
    18.20000    11.88730   124.04552     0.31551    11.88730   325.95448     0.31551
    18.30000    11.93709   123.66266     0.31580    11.93709   326.33734     0.31580
    18.40000    11.98732   123.27878     0.31609    11.98732   326.72122     0.31609
    18.50000    12.03799   122.89391     0.31638    12.03799   327.10609     0.31638
    18.60000    12.08913   122.50810     0.31667    12.08913   327.49190     0.31667
    18.70000    12.14073   122.12137     0.31696    12.14073   327.87863     0.31696
    18.80000    12.19282   121.73377     0.31725    12.19282   328.26623     0.31725
    18.90000    12.25885   121.27851     0.31766    12.25885   328.72149     0.31766
    19.00000    12.31202   120.88847     0.31795    12.31202   329.11153     0.31795
    19.10000    12.36571   120.49766     0.31823    12.36571   329.50234     0.31823
    19.20000    12.41993   120.10612     0.31852    12.41993   329.89388     0.31852
    19.30000    12.47470   119.71390     0.31880    12.47470   330.28610     0.31880
    19.40000    12.53001   119.32103     0.31908    12.53001   330.67897     0.31908
    19.50000    12.58590   118.92755     0.31936    12.58590   331.07245     0.31936
    19.60000    12.64235   118.53349     0.31964    12.64235   331.46651     0.31964
    19.70000    12.69940   118.13889     0.31992    12.69940   331.86111     0.31992
    19.80000    12.77143   117.67000     0.32032    12.77143   332.33000     0.32032
    19.90000    12.82981   117.27378     0.32060    12.82981   332.72622     0.32060
    20.00000    12.88880   116.87715     0.32087    12.88880   333.12285     0.32087
    20.10000    12.94843   116.48016     0.32115    12.94843   333.51984     0.32115
    20.20000    13.00870   116.08285     0.32142    13.00870   333.91715     0.32142
    20.30000    13.06963   115.68524     0.32169    13.06963   334.31476     0.32169
    20.40000    13.13123   115.28740     0.32196    13.13123   334.71260     0.32196
    20.50000    13.19350   114.88934     0.32223    13.19350   335.11066     0.32223
    20.60000    13.25645   114.49112     0.32250    13.25645   335.50888     0.32250
    20.70000    13.32011   114.09278     0.32276    13.32011   335.90722     0.32276
    20.80000    13.38447   113.69436     0.32303    13.38447   336.30564     0.32303
    20.90000    13.44955   113.29589     0.32329    13.44955   336.70411     0.32329
    21.00000    13.51535   112.89741     0.32355    13.51535   337.10259     0.32355
    21.10000    13.59828   112.41721     0.32393    13.59828   337.58279     0.32393
    21.20000    13.66575   112.01837     0.32419    13.66575   337.98163     0.32419
    21.30000    13.73398   111.61966     0.32445    13.73398   338.38034     0.32445
    21.40000    13.80299   111.22112     0.32470    13.80299   338.77888     0.32470
    21.50000    13.87277   110.82279     0.32496    13.87277   339.17721     0.32496
    21.60000    13.94335   110.42472     0.32521    13.94335   339.57528     0.32521
    21.70000    14.01472   110.02694     0.32546    14.01472   339.97306     0.32546
    21.80000    14.08691   109.62949     0.32571    14.08691   340.37051     0.32571
    21.90000    14.15991   109.23242     0.32596    14.15991   340.76758     0.32596
    22.00000    14.23375   108.83575     0.32621    14.23375   341.16425     0.32621
    22.10000    14.30842   108.43954     0.32645    14.30842   341.56046     0.32645
    22.20000    14.38394   108.04381     0.32670    14.38394   341.95619     0.32670
    22.30000    14.46031   107.64861     0.32694    14.46031   342.35139     0.32694
    22.40000    14.53755   107.25398     0.32718    14.53755   342.74602     0.32718
    22.50000    14.61566   106.85994     0.32742    14.61566   343.14006     0.32742
    22.60000    14.69466   106.46655     0.32766    14.69466   343.53345     0.32766
    22.70000    14.77455   106.07383     0.32789    14.77455   343.92617     0.32789
    22.80000    14.85533   105.68183     0.32813    14.85533   344.31817     0.32813
    22.90000    14.93703   105.29057     0.32836    14.93703   344.70943     0.32836
    23.00000    15.01964   104.90010     0.32859    15.01964   345.09990     0.32859
    23.10000    15.10317   104.51044     0.32882    15.10317   345.48956     0.32882
    23.20000    15.18764   104.12164     0.32905    15.18764   345.87836     0.32905
    23.30000    15.27305   103.73373     0.32927    15.27305   346.26627     0.32927
