 # applied field (T), theta (degree), phi (degree), abs [muB/unitcell], abs [T]
       0.00000000       0.00000000       0.00000000      45.26356754       1.52349631
       0.10000000       0.34143248     360.00000000      45.26356983       1.52349638
       0.20000000       0.68286572     360.00000000      45.26357668       1.52349661
       0.30000000       1.08108795     360.00000000      45.26358997       1.52349706
       0.40000000       1.42252546     360.00000000      45.26360658       1.52349762
       0.50000000       1.76396616     360.00000000      45.26362777       1.52349833
       0.60000000       2.10541081     360.00000000      45.26365355       1.52349920
       0.70000000       2.44686016     360.00000000      45.26368393       1.52350022
       0.80000000       2.84510620     360.00000000      45.26372395       1.52350157
       0.90000000       3.18656837     360.00000000      45.26376418       1.52350292
       1.00000000       3.52803765     360.00000000      45.26380905       1.52350443
       1.10000000       3.86951481     360.00000000      45.26385858       1.52350610
       1.20000000       4.26779737     360.00000000      45.26392039       1.52350818
       1.30000000       4.60929422     360.00000000      45.26397992       1.52351019
       1.40000000       4.95080134     360.00000000      45.26404416       1.52351235
       1.50000000       5.29231948     360.00000000      45.26411313       1.52351467
       1.60000000       5.69065394     360.00000000      45.26419714       1.52351750
       1.70000000       6.03219860     360.00000000      45.26427631       1.52352016
       1.80000000       6.37375668     360.00000000      45.26436030       1.52352299
       1.90000000       6.77214081     360.00000000      45.26446146       1.52352639
       2.00000000       7.11373055     360.00000000      45.26455583       1.52352957
       2.10000000       7.51215375     360.00000000      45.26466886       1.52353337
       2.20000000       7.85377865     360.00000000      45.26477374       1.52353690
       2.30000000       8.19542095     360.00000000      45.26488359       1.52354060
       2.40000000       8.59390855     360.00000000      45.26501437       1.52354500
       2.50000000       8.93559109     360.00000000      45.26513495       1.52354906
       2.60000000       9.33412776     360.00000000      45.26527803       1.52355388
       2.70000000       9.67585400     360.00000000      45.26540950       1.52355830
       2.80000000      10.07444374     360.00000000      45.26556508       1.52356354
       2.90000000      10.47306374     360.00000000      45.26572739       1.52356900
       3.00000000      10.81486390     360.00000000      45.26587586       1.52357400
       3.10000000      11.21354308     360.00000000      45.26605096       1.52357989
       3.20000000      11.61225579     360.00000000      45.26623296       1.52358602
       3.30000000      11.95413783     360.00000000      45.26639882       1.52359160
       3.40000000      12.35291572     360.00000000      45.26659390       1.52359817
       3.50000000      12.75173035     360.00000000      45.26679605       1.52360497
       3.60000000      13.15058280     360.00000000      45.26700530       1.52361201
       3.70000000      13.54947419     360.00000000      45.26722171       1.52361930
       3.80000000      13.94840560     360.00000000      45.26744534       1.52362683
       3.90000000      14.34737810     360.00000000      45.26767622       1.52363460
       4.00000000      14.74639277     360.00000000      45.26791442       1.52364261
       4.10000000      15.14545066     360.00000000      45.26815997       1.52365088
       4.20000000      15.54455281     360.00000000      45.26841292       1.52365939
       4.30000000      15.94370025     360.00000000      45.26867331       1.52366816
       4.40000000      16.39982561     360.00000000      45.26897433       1.52367829
       4.50000000      16.79907360     360.00000000      45.26925065       1.52368759
       4.60000000      17.25531669     360.00000000      45.26956971       1.52369833
       4.70000000      17.65466979     360.00000000      45.26986209       1.52370817
       4.80000000      18.11103573     360.00000000      45.27019934       1.52371952
       4.90000000      18.56746927     360.00000000      45.27054626       1.52373120
       5.00000000      18.96699202     360.00000000      45.27086337       1.52374187
       5.10000000      19.42355589     360.00000000      45.27122857       1.52375416
       5.20000000      19.88019123     360.00000000      45.27160346       1.52376678
       5.30000000      20.39390650     360.00000000      45.27203086       1.52378117
       5.40000000      20.85069802     360.00000000      45.27242619       1.52379447
       5.50000000      21.30756488     360.00000000      45.27283114       1.52380810
       5.60000000      21.82154550     360.00000000      45.27329193       1.52382361
       5.70000000      22.33562481     360.00000000      45.27376454       1.52383952
       5.80000000      22.84980436     360.00000000      45.27424886       1.52385582
       5.90000000      23.36408557     360.00000000      45.27474478       1.52387251
       6.00000000      23.87846982     360.00000000      45.27525213       1.52388959
       6.10000000      24.45005453     360.00000000      45.27582313       1.52390881
       6.20000000      25.02177004     360.00000000      45.27640762       1.52392848
       6.30000000      25.59361787     360.00000000      45.27700527       1.52394860
       6.40000000      26.16559937     360.00000000      45.27761577       1.52396915
       6.50000000      26.79486744     360.00000000      45.27829607       1.52399204
       6.60000000      27.42430057     360.00000000      45.27899075       1.52401542
       6.70000000      28.11108363     360.00000000      45.27975904       1.52404128
       6.80000000      28.79806618     360.00000000      45.28054272       1.52406766
       6.90000000      29.54246803     360.00000000      45.28140311       1.52409662
       7.00000000      90.00000000     360.00000000      45.30560985       1.52491138
       7.10000000      90.00000000     360.00000000      45.30565641       1.52491295
       7.20000000      90.00000000     360.00000000      45.30570298       1.52491451
       7.30000000      90.00000000     360.00000000      45.30574955       1.52491608
       7.40000000      90.00000000     360.00000000      45.30579613       1.52491765
       7.50000000      90.00000000     360.00000000      45.30584272       1.52491922
       7.60000000      90.00000000     360.00000000      45.30588931       1.52492079
       7.70000000      90.00000000     360.00000000      45.30593591       1.52492235
       7.80000000      90.00000000     360.00000000      45.30598251       1.52492392
       7.90000000      90.00000000     360.00000000      45.30602912       1.52492549
       8.00000000      90.00000000     360.00000000      45.30607574       1.52492706
       8.10000000      90.00000000     360.00000000      45.30612236       1.52492863
       8.20000000      90.00000000     360.00000000      45.30616899       1.52493020
       8.30000000      90.00000000     360.00000000      45.30621562       1.52493177
       8.40000000      90.00000000     360.00000000      45.30626226       1.52493334
       8.50000000      90.00000000     360.00000000      45.30630891       1.52493491
       8.60000000      90.00000000     360.00000000      45.30635556       1.52493648
       8.70000000      90.00000000     360.00000000      45.30640222       1.52493805
       8.80000000      90.00000000     360.00000000      45.30644888       1.52493962
       8.90000000      90.00000000     360.00000000      45.30649555       1.52494119
       9.00000000      90.00000000     360.00000000      45.30654222       1.52494276
       9.10000000      90.00000000     360.00000000      45.30658890       1.52494433
       9.20000000      90.00000000     360.00000000      45.30663559       1.52494590
       9.30000000      90.00000000     360.00000000      45.30668228       1.52494748
       9.40000000      90.00000000     360.00000000      45.30672898       1.52494905
       9.50000000      90.00000000     360.00000000      45.30677569       1.52495062
       9.60000000      90.00000000     360.00000000      45.30682240       1.52495219
       9.70000000      90.00000000     360.00000000      45.30686911       1.52495376
       9.80000000      90.00000000     360.00000000      45.30691584       1.52495534
       9.90000000      90.00000000     360.00000000      45.30696257       1.52495691
      10.00000000      90.00000000     360.00000000      45.30700930       1.52495848
      10.10000000      90.00000000     360.00000000      45.30705604       1.52496006
      10.20000000      90.00000000     360.00000000      45.30710279       1.52496163
      10.30000000      90.00000000     360.00000000      45.30714954       1.52496320
      10.40000000      90.00000000     360.00000000      45.30719630       1.52496478
      10.50000000      90.00000000     360.00000000      45.30724306       1.52496635
      10.60000000      90.00000000     360.00000000      45.30728983       1.52496792
      10.70000000      90.00000000     360.00000000      45.30733661       1.52496950
      10.80000000      90.00000000     360.00000000      45.30738339       1.52497107
      10.90000000      90.00000000     360.00000000      45.30743018       1.52497265
      11.00000000      90.00000000     360.00000000      45.30747697       1.52497422
      11.10000000      90.00000000     360.00000000      45.30752377       1.52497580
      11.20000000      90.00000000     360.00000000      45.30757057       1.52497737
      11.30000000      90.00000000     360.00000000      45.30761739       1.52497895
      11.40000000      90.00000000     360.00000000      45.30766420       1.52498053
      11.50000000      90.00000000     360.00000000      45.30771103       1.52498210
      11.60000000      90.00000000     360.00000000      45.30775786       1.52498368
      11.70000000      90.00000000     360.00000000      45.30780469       1.52498525
      11.80000000      90.00000000     360.00000000      45.30785153       1.52498683
      11.90000000      90.00000000     360.00000000      45.30789838       1.52498841
      12.00000000      90.00000000     360.00000000      45.30794523       1.52498998
      12.10000000      90.00000000     360.00000000      45.30799209       1.52499156
      12.20000000      90.00000000     360.00000000      45.30803896       1.52499314
      12.30000000      90.00000000     360.00000000      45.30808583       1.52499472
      12.40000000      90.00000000     360.00000000      45.30813271       1.52499629
      12.50000000      90.00000000     360.00000000      45.30817959       1.52499787
      12.60000000      90.00000000     360.00000000      45.30822648       1.52499945
      12.70000000      90.00000000     360.00000000      45.30827337       1.52500103
      12.80000000      90.00000000     360.00000000      45.30832027       1.52500261
      12.90000000      90.00000000     360.00000000      45.30836718       1.52500419
      13.00000000      90.00000000     360.00000000      45.30841409       1.52500577
      13.10000000      90.00000000     360.00000000      45.30846101       1.52500734
      13.20000000      90.00000000     360.00000000      45.30850794       1.52500892
      13.30000000      90.00000000     360.00000000      45.30855487       1.52501050
      13.40000000      90.00000000     360.00000000      45.30860180       1.52501208
      13.50000000      90.00000000     360.00000000      45.30864875       1.52501366
      13.60000000      90.00000000     360.00000000      45.30869570       1.52501524
      13.70000000      90.00000000     360.00000000      45.30874265       1.52501682
      13.80000000      90.00000000     360.00000000      45.30878961       1.52501840
      13.90000000      90.00000000     360.00000000      45.30883658       1.52501999
      14.00000000      90.00000000     360.00000000      45.30888355       1.52502157
      14.10000000      90.00000000     360.00000000      45.30893053       1.52502315
      14.20000000      90.00000000     360.00000000      45.30897751       1.52502473
      14.30000000      90.00000000     360.00000000      45.30902450       1.52502631
      14.40000000      90.00000000     360.00000000      45.30907150       1.52502789
      14.50000000      90.00000000     360.00000000      45.30911850       1.52502947
      14.60000000      90.00000000     360.00000000      45.30916551       1.52503106
      14.70000000      90.00000000     360.00000000      45.30921253       1.52503264
      14.80000000      90.00000000     360.00000000      45.30925955       1.52503422
      14.90000000      90.00000000     360.00000000      45.30930657       1.52503580
      15.00000000      90.00000000     360.00000000      45.30935361       1.52503739
      15.10000000      90.00000000     360.00000000      45.30940064       1.52503897
      15.20000000      90.00000000     360.00000000      45.30944769       1.52504055
      15.30000000      90.00000000     360.00000000      45.30949474       1.52504214
      15.40000000      90.00000000     360.00000000      45.30954180       1.52504372
      15.50000000      90.00000000     360.00000000      45.30958886       1.52504531
      15.60000000      90.00000000     360.00000000      45.30963593       1.52504689
      15.70000000      90.00000000     360.00000000      45.30968300       1.52504847
      15.80000000      90.00000000     360.00000000      45.30973008       1.52505006
      15.90000000      90.00000000     360.00000000      45.30977717       1.52505164
      16.00000000      90.00000000     360.00000000      45.30982426       1.52505323
      16.10000000      90.00000000     360.00000000      45.30987136       1.52505481
      16.20000000      90.00000000     360.00000000      45.30991846       1.52505640
      16.30000000      90.00000000     360.00000000      45.30996557       1.52505799
      16.40000000      90.00000000     360.00000000      45.31001269       1.52505957
      16.50000000      90.00000000     360.00000000      45.31005981       1.52506116
      16.60000000      90.00000000     360.00000000      45.31010694       1.52506274
      16.70000000      90.00000000     360.00000000      45.31015407       1.52506433
      16.80000000      90.00000000     360.00000000      45.31020121       1.52506592
      16.90000000      90.00000000     360.00000000      45.31024836       1.52506750
      17.00000000      90.00000000     360.00000000      45.31029551       1.52506909
      17.10000000      90.00000000     360.00000000      45.31034267       1.52507068
      17.20000000      90.00000000     360.00000000      45.31038984       1.52507227
      17.30000000      90.00000000     360.00000000      45.31043701       1.52507385
      17.40000000      90.00000000     360.00000000      45.31048418       1.52507544
      17.50000000      90.00000000     360.00000000      45.31053137       1.52507703
      17.60000000      90.00000000     360.00000000      45.31057855       1.52507862
      17.70000000      90.00000000     360.00000000      45.31062575       1.52508021
      17.80000000      90.00000000     360.00000000      45.31067295       1.52508179
      17.90000000      90.00000000     360.00000000      45.31072016       1.52508338
      18.00000000      90.00000000     360.00000000      45.31076737       1.52508497
      18.10000000      90.00000000     360.00000000      45.31081459       1.52508656
      18.20000000      90.00000000     360.00000000      45.31086181       1.52508815
      18.30000000      90.00000000     360.00000000      45.31090904       1.52508974
      18.40000000      90.00000000     360.00000000      45.31095628       1.52509133
      18.50000000      90.00000000     360.00000000      45.31100352       1.52509292
      18.60000000      90.00000000     360.00000000      45.31105077       1.52509451
      18.70000000      90.00000000     360.00000000      45.31109802       1.52509610
      18.80000000      90.00000000     360.00000000      45.31114528       1.52509769
      18.90000000      90.00000000     360.00000000      45.31119255       1.52509928
      19.00000000      90.00000000     360.00000000      45.31123982       1.52510087
      19.10000000      90.00000000     360.00000000      45.31128710       1.52510247
      19.20000000      90.00000000     360.00000000      45.31133439       1.52510406
      19.30000000      90.00000000     360.00000000      45.31138168       1.52510565
      19.40000000      90.00000000     360.00000000      45.31142898       1.52510724
      19.50000000      90.00000000     360.00000000      45.31147628       1.52510883
      19.60000000      90.00000000     360.00000000      45.31152359       1.52511043
      19.70000000      90.00000000     360.00000000      45.31157090       1.52511202
      19.80000000      90.00000000     360.00000000      45.31161822       1.52511361
      19.90000000      90.00000000     360.00000000      45.31166555       1.52511520
      20.00000000      90.00000000     360.00000000      45.31171288       1.52511680
      20.10000000      90.00000000     360.00000000      45.31176022       1.52511839
      20.20000000      90.00000000     360.00000000      45.31180757       1.52511998
      20.30000000      90.00000000     360.00000000      45.31185492       1.52512158
      20.40000000      90.00000000     360.00000000      45.31190228       1.52512317
      20.50000000      90.00000000     360.00000000      45.31194964       1.52512477
      20.60000000      90.00000000     360.00000000      45.31199701       1.52512636
      20.70000000      90.00000000     360.00000000      45.31204439       1.52512796
      20.80000000      90.00000000     360.00000000      45.31209177       1.52512955
      20.90000000      90.00000000     360.00000000      45.31213915       1.52513114
      21.00000000      90.00000000     360.00000000      45.31218655       1.52513274
      21.10000000      90.00000000     360.00000000      45.31223395       1.52513434
      21.20000000      90.00000000     360.00000000      45.31228135       1.52513593
      21.30000000      90.00000000     360.00000000      45.31232877       1.52513753
      21.40000000      90.00000000     360.00000000      45.31237618       1.52513912
      21.50000000      90.00000000     360.00000000      45.31242361       1.52514072
      21.60000000      90.00000000     360.00000000      45.31247104       1.52514232
      21.70000000      90.00000000     360.00000000      45.31251847       1.52514391
      21.80000000      90.00000000     360.00000000      45.31256591       1.52514551
      21.90000000      90.00000000     360.00000000      45.31261336       1.52514711
      22.00000000      90.00000000     360.00000000      45.31266082       1.52514870
      22.10000000      90.00000000     360.00000000      45.31270828       1.52515030
      22.20000000      90.00000000     360.00000000      45.31275574       1.52515190
      22.30000000      90.00000000     360.00000000      45.31280322       1.52515350
      22.40000000      90.00000000     360.00000000      45.31285069       1.52515509
      22.50000000      90.00000000     360.00000000      45.31289818       1.52515669
      22.60000000      90.00000000     360.00000000      45.31294567       1.52515829
      22.70000000      90.00000000     360.00000000      45.31299317       1.52515989
      22.80000000      90.00000000     360.00000000      45.31304067       1.52516149
      22.90000000      90.00000000     360.00000000      45.31308818       1.52516309
      23.00000000      90.00000000     360.00000000      45.31313569       1.52516469
