 # applied field (T), theta (degree), phi (degree), abs for RE 3-4
     0.00000   180.00000   360.00000     4.40501   180.00000   360.00000     4.40501
     0.10000   179.58100   219.55284     4.40500   179.58100   230.44716     4.40500
     0.20000   179.10962   219.55473     4.40497   179.10962   230.44527     4.40497
     0.30000   178.69046   219.55261     4.40493   178.69046   230.44739     4.40493
     0.40000   178.27115   219.55043     4.40487   178.27115   230.44957     4.40487
     0.50000   177.79926   219.54873     4.40478   177.79926   230.45127     4.40478
     0.60000   177.37949   219.54564     4.40468   177.37949   230.45436     4.40468
     0.70000   176.90696   219.54250     4.40455   176.90696   230.45750     4.40455
     0.80000   176.48652   219.53848     4.40441   176.48652   230.46152     4.40441
     0.90000    90.00000   217.26871     4.39734    90.00000   232.73129     4.39734
     1.00000    90.00000   217.26930     4.39730    90.00000   232.73070     4.39730
     1.10000    90.00000   217.26989     4.39726    90.00000   232.73011     4.39726
     1.20000    90.00000   217.27047     4.39722    90.00000   232.72953     4.39722
     1.30000    90.00000   217.27106     4.39718    90.00000   232.72894     4.39718
     1.40000    90.00000   217.27165     4.39714    90.00000   232.72835     4.39714
     1.50000    90.00000   217.27223     4.39710    90.00000   232.72777     4.39710
     1.60000    90.00000   217.27282     4.39706    90.00000   232.72718     4.39706
     1.70000    90.00000   217.27341     4.39702    90.00000   232.72659     4.39702
     1.80000    90.00000   217.27399     4.39698    90.00000   232.72601     4.39698
     1.90000    90.00000   217.27458     4.39694    90.00000   232.72542     4.39694
     2.00000    90.00000   217.27516     4.39690    90.00000   232.72484     4.39690
     2.10000    90.00000   217.27575     4.39686    90.00000   232.72425     4.39686
     2.20000    90.00000   217.27633     4.39682    90.00000   232.72367     4.39682
     2.30000    90.00000   217.27692     4.39678    90.00000   232.72308     4.39678
     2.40000    90.00000   217.27750     4.39674    90.00000   232.72250     4.39674
     2.50000    90.00000   217.27808     4.39670    90.00000   232.72192     4.39670
     2.60000    90.00000   217.27867     4.39666    90.00000   232.72133     4.39666
     2.70000    90.00000   217.27925     4.39662    90.00000   232.72075     4.39662
     2.80000    90.00000   217.27983     4.39658    90.00000   232.72017     4.39658
     2.90000    90.00000   217.28042     4.39654    90.00000   232.71958     4.39654
     3.00000    90.00000   217.28100     4.39650    90.00000   232.71900     4.39650
     3.10000    90.00000   217.28158     4.39646    90.00000   232.71842     4.39646
     3.20000    90.00000   217.28217     4.39642    90.00000   232.71783     4.39642
     3.30000    90.00000   217.28275     4.39638    90.00000   232.71725     4.39638
     3.40000    90.00000   217.28333     4.39634    90.00000   232.71667     4.39634
     3.50000    90.00000   217.28391     4.39630    90.00000   232.71609     4.39630
     3.60000    90.00000   217.28449     4.39626    90.00000   232.71551     4.39626
     3.70000    90.00000   217.28507     4.39622    90.00000   232.71493     4.39622
     3.80000    90.00000   217.28565     4.39618    90.00000   232.71435     4.39618
     3.90000    90.00000   217.28623     4.39614    90.00000   232.71377     4.39614
     4.00000    90.00000   217.28681     4.39610    90.00000   232.71319     4.39610
     4.10000    90.00000   217.28739     4.39606    90.00000   232.71261     4.39606
     4.20000    90.00000   217.28797     4.39602    90.00000   232.71203     4.39602
     4.30000    90.00000   217.28855     4.39598    90.00000   232.71145     4.39598
     4.40000    90.00000   217.28913     4.39594    90.00000   232.71087     4.39594
     4.50000    90.00000   217.28971     4.39590    90.00000   232.71029     4.39590
     4.60000    90.00000   217.29029     4.39585    90.00000   232.70971     4.39585
     4.70000    90.00000   217.29087     4.39581    90.00000   232.70913     4.39581
     4.80000    90.00000   217.29145     4.39577    90.00000   232.70855     4.39577
     4.90000    90.00000   217.29203     4.39573    90.00000   232.70797     4.39573
     5.00000    90.00000   217.29261     4.39569    90.00000   232.70739     4.39569
     5.10000    90.00000   217.29318     4.39565    90.00000   232.70682     4.39565
     5.20000    90.00000   217.29376     4.39561    90.00000   232.70624     4.39561
     5.30000    90.00000   217.29434     4.39557    90.00000   232.70566     4.39557
     5.40000    90.00000   217.29492     4.39553    90.00000   232.70508     4.39553
     5.50000    90.00000   217.29549     4.39549    90.00000   232.70451     4.39549
     5.60000    90.00000   217.29607     4.39545    90.00000   232.70393     4.39545
     5.70000    90.00000   217.29665     4.39541    90.00000   232.70335     4.39541
     5.80000    90.00000   217.29722     4.39537    90.00000   232.70278     4.39537
     5.90000    90.00000   217.29780     4.39533    90.00000   232.70220     4.39533
     6.00000    90.00000   217.29837     4.39529    90.00000   232.70163     4.39529
     6.10000    90.00000   217.29895     4.39525    90.00000   232.70105     4.39525
     6.20000    90.00000   217.29952     4.39521    90.00000   232.70048     4.39521
     6.30000    90.00000   217.30010     4.39517    90.00000   232.69990     4.39517
     6.40000    90.00000   217.30067     4.39513    90.00000   232.69933     4.39513
     6.50000    90.00000   217.30125     4.39509    90.00000   232.69875     4.39509
     6.60000    90.00000   217.30182     4.39505    90.00000   232.69818     4.39505
     6.70000    90.00000   217.30240     4.39501    90.00000   232.69760     4.39501
     6.80000    90.00000   217.30297     4.39497    90.00000   232.69703     4.39497
     6.90000    90.00000   217.30354     4.39493    90.00000   232.69646     4.39493
     7.00000    90.00000   217.30412     4.39489    90.00000   232.69588     4.39489
     7.10000    90.00000   217.30469     4.39485    90.00000   232.69531     4.39485
     7.20000    90.00000   217.30526     4.39481    90.00000   232.69474     4.39481
     7.30000    90.00000   217.30584     4.39477    90.00000   232.69416     4.39477
     7.40000    90.00000   217.30641     4.39473    90.00000   232.69359     4.39473
     7.50000    90.00000   217.30698     4.39469    90.00000   232.69302     4.39469
     7.60000    90.00000   217.30755     4.39465    90.00000   232.69245     4.39465
     7.70000    90.00000   217.30812     4.39461    90.00000   232.69188     4.39461
     7.80000    90.00000   217.30869     4.39457    90.00000   232.69131     4.39457
     7.90000    90.00000   217.30927     4.39453    90.00000   232.69073     4.39453
     8.00000    90.00000   217.30984     4.39449    90.00000   232.69016     4.39449
     8.10000    90.00000   217.31041     4.39445    90.00000   232.68959     4.39445
     8.20000    90.00000   217.31098     4.39441    90.00000   232.68902     4.39441
     8.30000    90.00000   217.31155     4.39437    90.00000   232.68845     4.39437
     8.40000    90.00000   217.31212     4.39433    90.00000   232.68788     4.39433
     8.50000    90.00000   217.31269     4.39429    90.00000   232.68731     4.39429
     8.60000    90.00000   217.31326     4.39425    90.00000   232.68674     4.39425
     8.70000    90.00000   217.31383     4.39420    90.00000   232.68617     4.39420
     8.80000    90.00000   217.31440     4.39416    90.00000   232.68560     4.39416
     8.90000    90.00000   217.31497     4.39412    90.00000   232.68503     4.39412
     9.00000    90.00000   217.31553     4.39408    90.00000   232.68447     4.39408
     9.10000    90.00000   217.31610     4.39404    90.00000   232.68390     4.39404
     9.20000    90.00000   217.31667     4.39400    90.00000   232.68333     4.39400
     9.30000    90.00000   217.31724     4.39396    90.00000   232.68276     4.39396
     9.40000    90.00000   217.31781     4.39392    90.00000   232.68219     4.39392
     9.50000    90.00000   217.31837     4.39388    90.00000   232.68163     4.39388
     9.60000    90.00000   217.31894     4.39384    90.00000   232.68106     4.39384
     9.70000    90.00000   217.31951     4.39380    90.00000   232.68049     4.39380
     9.80000    90.00000   217.32007     4.39376    90.00000   232.67993     4.39376
     9.90000    90.00000   217.32064     4.39372    90.00000   232.67936     4.39372
    10.00000    90.00000   217.32121     4.39368    90.00000   232.67879     4.39368
    10.10000    90.00000   217.32177     4.39364    90.00000   232.67823     4.39364
    10.20000    90.00000   217.32234     4.39360    90.00000   232.67766     4.39360
    10.30000    90.00000   217.32291     4.39356    90.00000   232.67709     4.39356
    10.40000    90.00000   217.32347     4.39352    90.00000   232.67653     4.39352
    10.50000    90.00000   217.32404     4.39348    90.00000   232.67596     4.39348
    10.60000    90.00000   217.32460     4.39344    90.00000   232.67540     4.39344
    10.70000    90.00000   217.32517     4.39340    90.00000   232.67483     4.39340
    10.80000    90.00000   217.32573     4.39336    90.00000   232.67427     4.39336
    10.90000    90.00000   217.32629     4.39332    90.00000   232.67371     4.39332
    11.00000    90.00000   217.32686     4.39328    90.00000   232.67314     4.39328
    11.10000    90.00000   217.32742     4.39324    90.00000   232.67258     4.39324
    11.20000    90.00000   217.32799     4.39319    90.00000   232.67201     4.39319
    11.30000    90.00000   217.32855     4.39315    90.00000   232.67145     4.39315
    11.40000    90.00000   217.32911     4.39311    90.00000   232.67089     4.39311
    11.50000    90.00000   217.32968     4.39307    90.00000   232.67032     4.39307
    11.60000    90.00000   217.33024     4.39303    90.00000   232.66976     4.39303
    11.70000    90.00000   217.33080     4.39299    90.00000   232.66920     4.39299
    11.80000    90.00000   217.33136     4.39295    90.00000   232.66864     4.39295
    11.90000    90.00000   217.33192     4.39291    90.00000   232.66808     4.39291
    12.00000    90.00000   217.33249     4.39287    90.00000   232.66751     4.39287
    12.10000    90.00000   217.33305     4.39283    90.00000   232.66695     4.39283
    12.20000    90.00000   217.33361     4.39279    90.00000   232.66639     4.39279
    12.30000    90.00000   217.33417     4.39275    90.00000   232.66583     4.39275
    12.40000    90.00000   217.33473     4.39271    90.00000   232.66527     4.39271
    12.50000    90.00000   217.33529     4.39267    90.00000   232.66471     4.39267
    12.60000    90.00000   217.33585     4.39263    90.00000   232.66415     4.39263
    12.70000    90.00000   217.33641     4.39259    90.00000   232.66359     4.39259
    12.80000    90.00000   217.33697     4.39255    90.00000   232.66303     4.39255
    12.90000    90.00000   217.33753     4.39251    90.00000   232.66247     4.39251
    13.00000    90.00000   217.33809     4.39247    90.00000   232.66191     4.39247
    13.10000    90.00000   217.33865     4.39243    90.00000   232.66135     4.39243
    13.20000    90.00000   217.33921     4.39238    90.00000   232.66079     4.39238
    13.30000    90.00000   217.33977     4.39234    90.00000   232.66023     4.39234
    13.40000    90.00000   217.34033     4.39230    90.00000   232.65967     4.39230
    13.50000    90.00000   217.34088     4.39226    90.00000   232.65912     4.39226
    13.60000    90.00000   217.34144     4.39222    90.00000   232.65856     4.39222
    13.70000    90.00000   217.34200     4.39218    90.00000   232.65800     4.39218
    13.80000    90.00000   217.34256     4.39214    90.00000   232.65744     4.39214
    13.90000    90.00000   217.34311     4.39210    90.00000   232.65689     4.39210
    14.00000    90.00000   217.34367     4.39206    90.00000   232.65633     4.39206
    14.10000    90.00000   217.34423     4.39202    90.00000   232.65577     4.39202
    14.20000    90.00000   217.34479     4.39198    90.00000   232.65521     4.39198
    14.30000    90.00000   217.34534     4.39194    90.00000   232.65466     4.39194
    14.40000    90.00000   217.34590     4.39190    90.00000   232.65410     4.39190
    14.50000    90.00000   217.34645     4.39186    90.00000   232.65355     4.39186
    14.60000    90.00000   217.34701     4.39182    90.00000   232.65299     4.39182
    14.70000    90.00000   217.34757     4.39178    90.00000   232.65243     4.39178
    14.80000    90.00000   217.34812     4.39174    90.00000   232.65188     4.39174
    14.90000    90.00000   217.34868     4.39169    90.00000   232.65132     4.39169
    15.00000    90.00000   217.34923     4.39165    90.00000   232.65077     4.39165
    15.10000    90.00000   217.34979     4.39161    90.00000   232.65021     4.39161
    15.20000    90.00000   217.35034     4.39157    90.00000   232.64966     4.39157
    15.30000    90.00000   217.35089     4.39153    90.00000   232.64911     4.39153
    15.40000    90.00000   217.35145     4.39149    90.00000   232.64855     4.39149
    15.50000    90.00000   217.35200     4.39145    90.00000   232.64800     4.39145
    15.60000    90.00000   217.35255     4.39141    90.00000   232.64745     4.39141
    15.70000    90.00000   217.35311     4.39137    90.00000   232.64689     4.39137
    15.80000    90.00000   217.35366     4.39133    90.00000   232.64634     4.39133
    15.90000    90.00000   217.35421     4.39129    90.00000   232.64579     4.39129
    16.00000    90.00000   217.35477     4.39125    90.00000   232.64523     4.39125
    16.10000    90.00000   217.35532     4.39121    90.00000   232.64468     4.39121
    16.20000    90.00000   217.35587     4.39117    90.00000   232.64413     4.39117
    16.30000    90.00000   217.35642     4.39113    90.00000   232.64358     4.39113
    16.40000    90.00000   217.35697     4.39108    90.00000   232.64303     4.39108
    16.50000    90.00000   217.35753     4.39104    90.00000   232.64247     4.39104
    16.60000    90.00000   217.35808     4.39100    90.00000   232.64192     4.39100
    16.70000    90.00000   217.35863     4.39096    90.00000   232.64137     4.39096
    16.80000    90.00000   217.35918     4.39092    90.00000   232.64082     4.39092
    16.90000    90.00000   217.35973     4.39088    90.00000   232.64027     4.39088
    17.00000    90.00000   217.36028     4.39084    90.00000   232.63972     4.39084
    17.10000    90.00000   217.36083     4.39080    90.00000   232.63917     4.39080
    17.20000    90.00000   217.36138     4.39076    90.00000   232.63862     4.39076
    17.30000    90.00000   217.36193     4.39072    90.00000   232.63807     4.39072
    17.40000    90.00000   217.36248     4.39068    90.00000   232.63752     4.39068
    17.50000    90.00000   217.36303     4.39064    90.00000   232.63697     4.39064
    17.60000    90.00000   217.36358     4.39060    90.00000   232.63642     4.39060
    17.70000    90.00000   217.36412     4.39055    90.00000   232.63588     4.39055
    17.80000    90.00000   217.36467     4.39051    90.00000   232.63533     4.39051
    17.90000    90.00000   217.36522     4.39047    90.00000   232.63478     4.39047
    18.00000    90.00000   217.36577     4.39043    90.00000   232.63423     4.39043
    18.10000    90.00000   217.36632     4.39039    90.00000   232.63368     4.39039
    18.20000    90.00000   217.36686     4.39035    90.00000   232.63314     4.39035
    18.30000    90.00000   217.36741     4.39031    90.00000   232.63259     4.39031
    18.40000    90.00000   217.36796     4.39027    90.00000   232.63204     4.39027
    18.50000    90.00000   217.36851     4.39023    90.00000   232.63149     4.39023
    18.60000    90.00000   217.36905     4.39019    90.00000   232.63095     4.39019
    18.70000    90.00000   217.36960     4.39015    90.00000   232.63040     4.39015
    18.80000    90.00000   217.37015     4.39011    90.00000   232.62985     4.39011
    18.90000    90.00000   217.37069     4.39007    90.00000   232.62931     4.39007
    19.00000    90.00000   217.37124     4.39002    90.00000   232.62876     4.39002
    19.10000    90.00000   217.37178     4.38998    90.00000   232.62822     4.38998
    19.20000    90.00000   217.37233     4.38994    90.00000   232.62767     4.38994
    19.30000    90.00000   217.37287     4.38990    90.00000   232.62713     4.38990
    19.40000    90.00000   217.37342     4.38986    90.00000   232.62658     4.38986
    19.50000    90.00000   217.37396     4.38982    90.00000   232.62604     4.38982
    19.60000    90.00000   217.37451     4.38978    90.00000   232.62549     4.38978
    19.70000    90.00000   217.37505     4.38974    90.00000   232.62495     4.38974
    19.80000    90.00000   217.37560     4.38970    90.00000   232.62440     4.38970
    19.90000    90.00000   217.37614     4.38966    90.00000   232.62386     4.38966
    20.00000    90.00000   217.37668     4.38962    90.00000   232.62332     4.38962
    20.10000    90.00000   217.37723     4.38957    90.00000   232.62277     4.38957
    20.20000    90.00000   217.37777     4.38953    90.00000   232.62223     4.38953
    20.30000    90.00000   217.37831     4.38949    90.00000   232.62169     4.38949
    20.40000    90.00000   217.37885     4.38945    90.00000   232.62115     4.38945
    20.50000    90.00000   217.37940     4.38941    90.00000   232.62060     4.38941
    20.60000    90.00000   217.37994     4.38937    90.00000   232.62006     4.38937
    20.70000    90.00000   217.38048     4.38933    90.00000   232.61952     4.38933
    20.80000    90.00000   217.38102     4.38929    90.00000   232.61898     4.38929
    20.90000    90.00000   217.38156     4.38925    90.00000   232.61844     4.38925
    21.00000    90.00000   217.38210     4.38921    90.00000   232.61790     4.38921
    21.10000    90.00000   217.38265     4.38917    90.00000   232.61735     4.38917
    21.20000    90.00000   217.38319     4.38912    90.00000   232.61681     4.38912
    21.30000    90.00000   217.38373     4.38908    90.00000   232.61627     4.38908
    21.40000    90.00000   217.38427     4.38904    90.00000   232.61573     4.38904
    21.50000    90.00000   217.38481     4.38900    90.00000   232.61519     4.38900
    21.60000    90.00000   217.38535     4.38896    90.00000   232.61465     4.38896
    21.70000    90.00000   217.38589     4.38892    90.00000   232.61411     4.38892
    21.80000    90.00000   217.38643     4.38888    90.00000   232.61357     4.38888
    21.90000    90.00000   217.38697     4.38884    90.00000   232.61303     4.38884
    22.00000    90.00000   217.38751     4.38880    90.00000   232.61249     4.38880
    22.10000    90.00000   217.38804     4.38876    90.00000   232.61196     4.38876
    22.20000    90.00000   217.38858     4.38872    90.00000   232.61142     4.38872
    22.30000    90.00000   217.38912     4.38867    90.00000   232.61088     4.38867
    22.40000    90.00000   217.38966     4.38863    90.00000   232.61034     4.38863
    22.50000    90.00000   217.39020     4.38859    90.00000   232.60980     4.38859
    22.60000    90.00000   217.39073     4.38855    90.00000   232.60927     4.38855
    22.70000    90.00000   217.39127     4.38851    90.00000   232.60873     4.38851
    22.80000    90.00000   217.39181     4.38847    90.00000   232.60819     4.38847
    22.90000    90.00000   217.39235     4.38843    90.00000   232.60765     4.38843
    23.00000    90.00000   217.39288     4.38839    90.00000   232.60712     4.38839
    23.10000    90.00000   217.39342     4.38835    90.00000   232.60658     4.38835
    23.20000    90.00000   217.39396     4.38831    90.00000   232.60604     4.38831
    23.30000    90.00000   217.39449     4.38826    90.00000   232.60551     4.38826
