 # applied field (T), theta (degree), phi (degree), abs for RE 1-2
     0.00000   179.91888   135.00000     3.94474   179.91888    45.00000     3.94474
     0.10000   179.18884   174.69389     3.94455   179.30680   176.62642     3.94717
     0.20000   178.38535   176.65773     3.94428   178.50476   179.11039     3.94970
     0.30000   177.63451   177.28148     3.94398   177.75518   179.82255     3.95199
     0.40000   176.82941   177.61822     3.94358   176.95153   180.19400     3.95437
     0.50000   176.02371   177.81539     3.94313   176.14738   180.40840     3.95666
     0.60000   175.27115   177.93628     3.94265   175.39636   180.53957     3.95872
     0.70000   174.46413   178.02712     3.94208   174.59111   180.63846     3.96083
     0.80000   173.65635   178.09278     3.94146   173.78520   180.71078     3.96284
     0.90000   172.90167   178.13884     3.94082   173.03236   180.76256     3.96462
     1.00000   172.09220   178.17684     3.94009   172.22496   180.80631     3.96642
     1.10000   171.28175   178.20625     3.93930   171.41671   180.84138     3.96810
     1.20000   170.47028   178.22924     3.93846   170.60753   180.87007     3.96966
     1.30000   169.60349   178.24840     3.93751   169.74332   180.89538     3.97119
     1.40000   168.78969   178.26239     3.93657   168.93206   180.91536     3.97249
     1.50000   167.92029   178.27404     3.93552   168.06550   180.93353     3.97372
     1.60000   167.10393   178.28242     3.93449   167.25193   180.94828     3.97474
     1.70000   166.23169   178.28922     3.93335   166.38281   180.96204     3.97566
     1.80000   165.30321   178.29445     3.93209   165.45781   180.97486     3.97646
     1.90000   164.42771   178.29780     3.93086   164.58573   180.98561     3.97703
     2.00000   163.55055   178.29988     3.92960   163.71214   180.99530     3.97742
     2.10000   162.61671   178.30096     3.92822   162.78224   181.00464     3.97764
     2.20000   161.62580   178.30105     3.92671   161.79568   181.01365     3.97764
     2.30000   160.68790   178.30026     3.92526   160.86202   181.02151     3.97742
     2.40000   159.69260   178.29868     3.92370   159.87138   181.02925     3.97695
     2.50000   158.69501   178.29647     3.92211   158.87856   181.03650     3.97623
     2.60000   157.63948   178.29356     3.92041   157.82817   181.04373     3.97519
     2.70000   156.58134   178.29017     3.91869   156.77526   181.05060     3.97387
     2.80000   155.46469   178.28619     3.91686   155.66414   181.05752     3.97217
     2.90000   154.34516   178.28187     3.91503   154.55011   181.06419     3.97016
     3.00000   153.11036   178.27685     3.91300   153.32124   181.07130     3.96757
     3.10000   151.92848   178.27183     3.91107   152.14482   181.07792     3.96475
     3.20000   150.63050   178.26620     3.90897   150.85248   181.08503     3.96127
     3.30000   149.27221   178.26026     3.90680   149.49953   181.09236     3.95720
     3.40000   147.85325   178.25407     3.90457   148.08534   181.09994     3.95253
     3.50000   146.37324   178.24773     3.90229   146.60924   181.10783     3.94720
     3.60000   144.77471   178.24109     3.89989   145.01340   181.11639     3.94099
     3.70000   143.05689   178.23429     3.89740   143.29636   181.12571     3.93383
     3.80000   141.16156   178.22731     3.89477   141.39895   181.13623     3.92543
     3.90000   139.14531   178.22057     3.89211   139.37658   181.14783     3.91607
     4.00000   136.83414   178.21386     3.88925   137.05285   181.16180     3.90496
     4.10000   134.22634   178.20775     3.88627   134.42312   181.17867     3.89225
     4.20000   131.08786   178.20263     3.88304   131.24686   181.20087     3.87721
     4.30000   127.12448   178.19998     3.87949   127.21837   181.23236     3.85954
     4.40000   121.33841   178.20424     3.87523   121.30833   181.28575     3.83858
     4.50000    90.27842   178.38974     3.86087    89.72158   181.61026     3.86087
     4.60000    90.27843   178.38972     3.86087    89.72157   181.61028     3.86087
     4.70000    90.27844   178.38970     3.86086    89.72156   181.61030     3.86086
     4.80000    90.27845   178.38968     3.86086    89.72155   181.61032     3.86086
     4.90000    90.27846   178.38966     3.86086    89.72154   181.61034     3.86086
     5.00000    90.27847   178.38964     3.86086    89.72153   181.61036     3.86086
     5.10000    90.27848   178.38962     3.86086    89.72152   181.61038     3.86086
     5.20000    90.27849   178.38960     3.86086    89.72151   181.61040     3.86086
     5.30000    90.27850   178.38958     3.86086    89.72150   181.61042     3.86086
     5.40000    90.27851   178.38956     3.86086    89.72149   181.61044     3.86086
     5.50000    90.27852   178.38954     3.86086    89.72148   181.61046     3.86086
     5.60000    90.27853   178.38952     3.86086    89.72147   181.61048     3.86086
     5.70000    90.27854   178.38950     3.86086    89.72146   181.61050     3.86086
     5.80000    90.27855   178.38948     3.86086    89.72145   181.61052     3.86086
     5.90000    90.27856   178.38946     3.86086    89.72144   181.61054     3.86086
     6.00000    90.27857   178.38945     3.86086    89.72143   181.61055     3.86086
     6.10000    90.27858   178.38943     3.86085    89.72142   181.61057     3.86085
     6.20000    90.27859   178.38941     3.86085    89.72141   181.61059     3.86085
     6.30000    90.27860   178.38939     3.86085    89.72140   181.61061     3.86085
     6.40000    90.27861   178.38937     3.86085    89.72139   181.61063     3.86085
     6.50000    90.27862   178.38935     3.86085    89.72138   181.61065     3.86085
     6.60000    90.27863   178.38933     3.86085    89.72137   181.61067     3.86085
     6.70000    90.27864   178.38931     3.86085    89.72136   181.61069     3.86085
     6.80000    90.27865   178.38929     3.86085    89.72135   181.61071     3.86085
     6.90000    90.27866   178.38927     3.86085    89.72134   181.61073     3.86085
     7.00000    90.27866   178.38925     3.86085    89.72134   181.61075     3.86085
     7.10000    90.27867   178.38923     3.86085    89.72133   181.61077     3.86085
     7.20000    90.27868   178.38921     3.86084    89.72132   181.61079     3.86084
     7.30000    90.27869   178.38919     3.86084    89.72131   181.61081     3.86084
     7.40000    90.27870   178.38917     3.86084    89.72130   181.61083     3.86084
     7.50000    90.27871   178.38915     3.86084    89.72129   181.61085     3.86084
     7.60000    90.27872   178.38913     3.86084    89.72128   181.61087     3.86084
     7.70000    90.27873   178.38911     3.86084    89.72127   181.61089     3.86084
     7.80000    90.27874   178.38909     3.86084    89.72126   181.61091     3.86084
     7.90000    90.27875   178.38907     3.86084    89.72125   181.61093     3.86084
     8.00000    90.27876   178.38905     3.86084    89.72124   181.61095     3.86084
     8.10000    90.27877   178.38903     3.86083    89.72123   181.61097     3.86083
     8.20000    90.27878   178.38901     3.86083    89.72122   181.61099     3.86083
     8.30000    90.27879   178.38899     3.86083    89.72121   181.61101     3.86083
     8.40000    90.27880   178.38897     3.86083    89.72120   181.61103     3.86083
     8.50000    90.27881   178.38895     3.86083    89.72119   181.61105     3.86083
     8.60000    90.27882   178.38893     3.86083    89.72118   181.61107     3.86083
     8.70000    90.27883   178.38891     3.86083    89.72117   181.61109     3.86083
     8.80000    90.27884   178.38889     3.86083    89.72116   181.61111     3.86083
     8.90000    90.27885   178.38887     3.86082    89.72115   181.61113     3.86082
     9.00000    90.27886   178.38885     3.86082    89.72114   181.61115     3.86082
     9.10000    90.27887   178.38883     3.86082    89.72113   181.61117     3.86082
     9.20000    90.27888   178.38881     3.86082    89.72112   181.61119     3.86082
     9.30000    90.27889   178.38879     3.86082    89.72111   181.61121     3.86082
     9.40000    90.27890   178.38877     3.86082    89.72110   181.61123     3.86082
     9.50000    90.27891   178.38875     3.86082    89.72109   181.61125     3.86082
     9.60000    90.27892   178.38873     3.86081    89.72108   181.61127     3.86081
     9.70000    90.27893   178.38871     3.86081    89.72107   181.61129     3.86081
     9.80000    90.27894   178.38869     3.86081    89.72106   181.61131     3.86081
     9.90000    90.27895   178.38867     3.86081    89.72105   181.61133     3.86081
    10.00000    90.27896   178.38865     3.86081    89.72104   181.61135     3.86081
    10.10000    90.27896   178.38863     3.86081    89.72104   181.61137     3.86081
    10.20000    90.27897   178.38861     3.86081    89.72103   181.61139     3.86081
    10.30000    90.27898   178.38859     3.86080    89.72102   181.61141     3.86080
    10.40000    90.27899   178.38857     3.86080    89.72101   181.61143     3.86080
    10.50000    90.27900   178.38855     3.86080    89.72100   181.61145     3.86080
    10.60000    90.27901   178.38853     3.86080    89.72099   181.61147     3.86080
    10.70000    90.27902   178.38851     3.86080    89.72098   181.61149     3.86080
    10.80000    90.27903   178.38849     3.86080    89.72097   181.61151     3.86080
    10.90000    90.27904   178.38847     3.86079    89.72096   181.61153     3.86079
    11.00000    90.27905   178.38845     3.86079    89.72095   181.61155     3.86079
    11.10000    90.27906   178.38843     3.86079    89.72094   181.61157     3.86079
    11.20000    90.27907   178.38841     3.86079    89.72093   181.61159     3.86079
    11.30000    90.27908   178.38839     3.86079    89.72092   181.61161     3.86079
    11.40000    90.27909   178.38837     3.86078    89.72091   181.61163     3.86078
    11.50000    90.27910   178.38835     3.86078    89.72090   181.61165     3.86078
    11.60000    90.27911   178.38833     3.86078    89.72089   181.61167     3.86078
    11.70000    90.27912   178.38831     3.86078    89.72088   181.61169     3.86078
    11.80000    90.27913   178.38829     3.86078    89.72087   181.61171     3.86078
    11.90000    90.27914   178.38827     3.86078    89.72086   181.61173     3.86078
    12.00000    90.27915   178.38825     3.86077    89.72085   181.61175     3.86077
    12.10000    90.27916   178.38823     3.86077    89.72084   181.61177     3.86077
    12.20000    90.27917   178.38821     3.86077    89.72083   181.61179     3.86077
    12.30000    90.27918   178.38819     3.86077    89.72082   181.61181     3.86077
    12.40000    90.27919   178.38817     3.86077    89.72081   181.61183     3.86077
    12.50000    90.27920   178.38815     3.86076    89.72080   181.61185     3.86076
    12.60000    90.27921   178.38813     3.86076    89.72079   181.61187     3.86076
    12.70000    90.27922   178.38811     3.86076    89.72078   181.61189     3.86076
    12.80000    90.27923   178.38809     3.86076    89.72077   181.61191     3.86076
    12.90000    90.27924   178.38807     3.86075    89.72076   181.61193     3.86075
    13.00000    90.27925   178.38805     3.86075    89.72075   181.61195     3.86075
    13.10000    90.27926   178.38803     3.86075    89.72074   181.61197     3.86075
    13.20000    90.27926   178.38801     3.86075    89.72074   181.61199     3.86075
    13.30000    90.27927   178.38799     3.86075    89.72073   181.61201     3.86075
    13.40000    90.27928   178.38797     3.86074    89.72072   181.61203     3.86074
    13.50000    90.27929   178.38795     3.86074    89.72071   181.61205     3.86074
    13.60000    90.27930   178.38793     3.86074    89.72070   181.61207     3.86074
    13.70000    90.27931   178.38791     3.86074    89.72069   181.61209     3.86074
    13.80000    90.27932   178.38789     3.86074    89.72068   181.61211     3.86074
    13.90000    90.27933   178.38787     3.86073    89.72067   181.61213     3.86073
    14.00000    90.27934   178.38785     3.86073    89.72066   181.61215     3.86073
    14.10000    90.27935   178.38783     3.86073    89.72065   181.61217     3.86073
    14.20000    90.27936   178.38781     3.86073    89.72064   181.61219     3.86073
    14.30000    90.27937   178.38779     3.86072    89.72063   181.61221     3.86072
    14.40000    90.27938   178.38777     3.86072    89.72062   181.61223     3.86072
    14.50000    90.27939   178.38775     3.86072    89.72061   181.61225     3.86072
    14.60000    90.27940   178.38773     3.86072    89.72060   181.61227     3.86072
    14.70000    90.27941   178.38771     3.86071    89.72059   181.61229     3.86071
    14.80000    90.27942   178.38769     3.86071    89.72058   181.61231     3.86071
    14.90000    90.27943   178.38767     3.86071    89.72057   181.61233     3.86071
    15.00000    90.27944   178.38765     3.86071    89.72056   181.61235     3.86071
    15.10000    90.27945   178.38763     3.86070    89.72055   181.61237     3.86070
    15.20000    90.27946   178.38761     3.86070    89.72054   181.61239     3.86070
    15.30000    90.27947   178.38759     3.86070    89.72053   181.61241     3.86070
    15.40000    90.27948   178.38757     3.86070    89.72052   181.61243     3.86070
    15.50000    90.27949   178.38755     3.86069    89.72051   181.61245     3.86069
    15.60000    90.27950   178.38753     3.86069    89.72050   181.61247     3.86069
    15.70000    90.27951   178.38751     3.86069    89.72049   181.61249     3.86069
    15.80000    90.27952   178.38749     3.86069    89.72048   181.61251     3.86069
    15.90000    90.27953   178.38747     3.86068    89.72047   181.61253     3.86068
    16.00000    90.27954   178.38744     3.86068    89.72046   181.61256     3.86068
    16.10000    90.27955   178.38742     3.86068    89.72045   181.61258     3.86068
    16.20000    90.27955   178.38740     3.86068    89.72045   181.61260     3.86068
    16.30000    90.27956   178.38738     3.86067    89.72044   181.61262     3.86067
    16.40000    90.27957   178.38736     3.86067    89.72043   181.61264     3.86067
    16.50000    90.27958   178.38734     3.86067    89.72042   181.61266     3.86067
    16.60000    90.27959   178.38732     3.86066    89.72041   181.61268     3.86066
    16.70000    90.27960   178.38730     3.86066    89.72040   181.61270     3.86066
    16.80000    90.27961   178.38728     3.86066    89.72039   181.61272     3.86066
    16.90000    90.27962   178.38726     3.86066    89.72038   181.61274     3.86066
    17.00000    90.27963   178.38724     3.86065    89.72037   181.61276     3.86065
    17.10000    90.27964   178.38722     3.86065    89.72036   181.61278     3.86065
    17.20000    90.27965   178.38720     3.86065    89.72035   181.61280     3.86065
    17.30000    90.27966   178.38718     3.86064    89.72034   181.61282     3.86064
    17.40000    90.27967   178.38716     3.86064    89.72033   181.61284     3.86064
    17.50000    90.27968   178.38714     3.86064    89.72032   181.61286     3.86064
    17.60000    90.27969   178.38712     3.86064    89.72031   181.61288     3.86064
    17.70000    90.27970   178.38710     3.86063    89.72030   181.61290     3.86063
    17.80000    90.27971   178.38708     3.86063    89.72029   181.61292     3.86063
    17.90000    90.27972   178.38706     3.86063    89.72028   181.61294     3.86063
    18.00000    90.27973   178.38704     3.86062    89.72027   181.61296     3.86062
    18.10000    90.27974   178.38702     3.86062    89.72026   181.61298     3.86062
    18.20000    90.27975   178.38700     3.86062    89.72025   181.61300     3.86062
    18.30000    90.27976   178.38697     3.86061    89.72024   181.61303     3.86061
    18.40000    90.27977   178.38695     3.86061    89.72023   181.61305     3.86061
    18.50000    90.27978   178.38693     3.86061    89.72022   181.61307     3.86061
    18.60000    90.27979   178.38691     3.86060    89.72021   181.61309     3.86060
    18.70000    90.27980   178.38689     3.86060    89.72020   181.61311     3.86060
    18.80000    90.27981   178.38687     3.86060    89.72019   181.61313     3.86060
    18.90000    90.27982   178.38685     3.86059    89.72018   181.61315     3.86059
    19.00000    90.27983   178.38683     3.86059    89.72017   181.61317     3.86059
    19.10000    90.27983   178.38681     3.86059    89.72017   181.61319     3.86059
    19.20000    90.27984   178.38679     3.86058    89.72016   181.61321     3.86058
    19.30000    90.27985   178.38677     3.86058    89.72015   181.61323     3.86058
    19.40000    90.27986   178.38675     3.86058    89.72014   181.61325     3.86058
    19.50000    90.27987   178.38673     3.86057    89.72013   181.61327     3.86057
    19.60000    90.27988   178.38671     3.86057    89.72012   181.61329     3.86057
    19.70000    90.27989   178.38669     3.86057    89.72011   181.61331     3.86057
    19.80000    90.27990   178.38667     3.86056    89.72010   181.61333     3.86056
    19.90000    90.27991   178.38665     3.86056    89.72009   181.61335     3.86056
    20.00000    90.27992   178.38662     3.86056    89.72008   181.61338     3.86056
    20.10000    90.27993   178.38660     3.86055    89.72007   181.61340     3.86055
    20.20000    90.27994   178.38658     3.86055    89.72006   181.61342     3.86055
    20.30000    90.27995   178.38656     3.86055    89.72005   181.61344     3.86055
    20.40000    90.27996   178.38654     3.86054    89.72004   181.61346     3.86054
    20.50000    90.27997   178.38652     3.86054    89.72003   181.61348     3.86054
    20.60000    90.27998   178.38650     3.86054    89.72002   181.61350     3.86054
    20.70000    90.27999   178.38648     3.86053    89.72001   181.61352     3.86053
    20.80000    90.28000   178.38646     3.86053    89.72000   181.61354     3.86053
    20.90000    90.28001   178.38644     3.86053    89.71999   181.61356     3.86053
    21.00000    90.28002   178.38642     3.86052    89.71998   181.61358     3.86052
    21.10000    90.28003   178.38640     3.86052    89.71997   181.61360     3.86052
    21.20000    90.28004   178.38638     3.86052    89.71996   181.61362     3.86052
    21.30000    90.28005   178.38636     3.86051    89.71995   181.61364     3.86051
    21.40000    90.28006   178.38633     3.86051    89.71994   181.61367     3.86051
    21.50000    90.28007   178.38631     3.86050    89.71993   181.61369     3.86050
    21.60000    90.28008   178.38629     3.86050    89.71992   181.61371     3.86050
    21.70000    90.28009   178.38627     3.86050    89.71991   181.61373     3.86050
    21.80000    90.28010   178.38625     3.86049    89.71990   181.61375     3.86049
    21.90000    90.28011   178.38623     3.86049    89.71989   181.61377     3.86049
    22.00000    90.28011   178.38621     3.86049    89.71989   181.61379     3.86049
    22.10000    90.28012   178.38619     3.86048    89.71988   181.61381     3.86048
    22.20000    90.28013   178.38617     3.86048    89.71987   181.61383     3.86048
    22.30000    90.28014   178.38615     3.86047    89.71986   181.61385     3.86047
    22.40000    90.28015   178.38613     3.86047    89.71985   181.61387     3.86047
    22.50000    90.28016   178.38611     3.86047    89.71984   181.61389     3.86047
    22.60000    90.28017   178.38608     3.86046    89.71983   181.61392     3.86046
    22.70000    90.28018   178.38606     3.86046    89.71982   181.61394     3.86046
    22.80000    90.28019   178.38604     3.86045    89.71981   181.61396     3.86045
    22.90000    90.28020   178.38602     3.86045    89.71980   181.61398     3.86045
    23.00000    90.28021   178.38600     3.86045    89.71979   181.61400     3.86045
    23.10000    90.28022   178.38598     3.86044    89.71978   181.61402     3.86044
    23.20000    90.28023   178.38596     3.86044    89.71977   181.61404     3.86044
    23.30000    90.28024   178.38594     3.86043    89.71976   181.61406     3.86043
