 # applied field (T), theta (degree), phi (degree), abs [muB/unitcell], abs [T]
       0.00000000       0.00000000       0.00000000      43.98127755       1.47028535
       0.10000000       0.45666038     360.00000000      43.98128196       1.47028550
       0.20000000       0.97031409     360.00000000      43.98129724       1.47028601
       0.30000000       1.42698526     360.00000000      43.98132027       1.47028678
       0.40000000       1.88366658     360.00000000      43.98135210       1.47028784
       0.50000000       2.39735596     360.00000000      43.98139780       1.47028937
       0.60000000       2.85406957     360.00000000      43.98144809       1.47029105
       0.70000000       3.36780350     360.00000000      43.98151423       1.47029326
       0.80000000       3.82456394     360.00000000      43.98158279       1.47029555
       0.90000000       4.33835870     360.00000000      43.98166911       1.47029844
       1.00000000      90.00000000     360.00000000      43.98914321       1.47054830
       1.10000000      90.00000000     360.00000000      43.98918262       1.47054962
       1.20000000      90.00000000     360.00000000      43.98922203       1.47055093
       1.30000000      90.00000000     360.00000000      43.98926145       1.47055225
       1.40000000      90.00000000     360.00000000      43.98930086       1.47055357
       1.50000000      90.00000000     360.00000000      43.98934029       1.47055489
       1.60000000      90.00000000     360.00000000      43.98937972       1.47055620
       1.70000000      90.00000000     360.00000000      43.98941915       1.47055752
       1.80000000      90.00000000     360.00000000      43.98945858       1.47055884
       1.90000000      90.00000000     360.00000000      43.98949802       1.47056016
       2.00000000      90.00000000     360.00000000      43.98953747       1.47056148
       2.10000000      90.00000000     360.00000000      43.98957692       1.47056280
       2.20000000      90.00000000     360.00000000      43.98961637       1.47056412
       2.30000000      90.00000000     360.00000000      43.98965583       1.47056543
       2.40000000      90.00000000     360.00000000      43.98969529       1.47056675
       2.50000000      90.00000000     360.00000000      43.98973476       1.47056807
       2.60000000      90.00000000     360.00000000      43.98977423       1.47056939
       2.70000000      90.00000000     360.00000000      43.98981371       1.47057071
       2.80000000      90.00000000     360.00000000      43.98985319       1.47057203
       2.90000000      90.00000000     360.00000000      43.98989267       1.47057335
       3.00000000      90.00000000     360.00000000      43.98993216       1.47057467
       3.10000000      90.00000000     360.00000000      43.98997166       1.47057599
       3.20000000      90.00000000     360.00000000      43.99001115       1.47057731
       3.30000000      90.00000000     360.00000000      43.99005066       1.47057863
       3.40000000      90.00000000     360.00000000      43.99009016       1.47057995
       3.50000000      90.00000000     360.00000000      43.99012967       1.47058127
       3.60000000      90.00000000     360.00000000      43.99016919       1.47058260
       3.70000000      90.00000000     360.00000000      43.99020871       1.47058392
       3.80000000      90.00000000     360.00000000      43.99024823       1.47058524
       3.90000000      90.00000000     360.00000000      43.99028776       1.47058656
       4.00000000      90.00000000     360.00000000      43.99032729       1.47058788
       4.10000000      90.00000000     360.00000000      43.99036683       1.47058920
       4.20000000      90.00000000     360.00000000      43.99040637       1.47059052
       4.30000000      90.00000000     360.00000000      43.99044592       1.47059185
       4.40000000      90.00000000     360.00000000      43.99048547       1.47059317
       4.50000000      90.00000000     360.00000000      43.99052502       1.47059449
       4.60000000      90.00000000     360.00000000      43.99056458       1.47059581
       4.70000000      90.00000000     360.00000000      43.99060415       1.47059714
       4.80000000      90.00000000     360.00000000      43.99064372       1.47059846
       4.90000000      90.00000000     360.00000000      43.99068329       1.47059978
       5.00000000      90.00000000     360.00000000      43.99072286       1.47060111
       5.10000000      90.00000000     360.00000000      43.99076245       1.47060243
       5.20000000      90.00000000     360.00000000      43.99080203       1.47060375
       5.30000000      90.00000000     360.00000000      43.99084162       1.47060508
       5.40000000      90.00000000     360.00000000      43.99088122       1.47060640
       5.50000000      90.00000000     360.00000000      43.99092081       1.47060772
       5.60000000      90.00000000     360.00000000      43.99096042       1.47060905
       5.70000000      90.00000000     360.00000000      43.99100003       1.47061037
       5.80000000      90.00000000     360.00000000      43.99103964       1.47061169
       5.90000000      90.00000000     360.00000000      43.99107925       1.47061302
       6.00000000      90.00000000     360.00000000      43.99111888       1.47061434
       6.10000000      90.00000000     360.00000000      43.99115850       1.47061567
       6.20000000      90.00000000     360.00000000      43.99119813       1.47061699
       6.30000000      90.00000000     360.00000000      43.99123776       1.47061832
       6.40000000      90.00000000     360.00000000      43.99127740       1.47061964
       6.50000000      90.00000000     360.00000000      43.99131705       1.47062097
       6.60000000      90.00000000     360.00000000      43.99135669       1.47062229
       6.70000000      90.00000000     360.00000000      43.99139635       1.47062362
       6.80000000      90.00000000     360.00000000      43.99143600       1.47062495
       6.90000000      90.00000000     360.00000000      43.99147566       1.47062627
       7.00000000      90.00000000     360.00000000      43.99151533       1.47062760
       7.10000000      90.00000000     360.00000000      43.99155500       1.47062892
       7.20000000      90.00000000     360.00000000      43.99159467       1.47063025
       7.30000000      90.00000000     360.00000000      43.99163435       1.47063158
       7.40000000      90.00000000     360.00000000      43.99167403       1.47063290
       7.50000000      90.00000000     360.00000000      43.99171372       1.47063423
       7.60000000      90.00000000     360.00000000      43.99175341       1.47063556
       7.70000000      90.00000000     360.00000000      43.99179311       1.47063688
       7.80000000      90.00000000     360.00000000      43.99183281       1.47063821
       7.90000000      90.00000000     360.00000000      43.99187251       1.47063954
       8.00000000      90.00000000     360.00000000      43.99191222       1.47064087
       8.10000000      90.00000000     360.00000000      43.99195194       1.47064219
       8.20000000      90.00000000     360.00000000      43.99199166       1.47064352
       8.30000000      90.00000000     360.00000000      43.99203138       1.47064485
       8.40000000      90.00000000     360.00000000      43.99207110       1.47064618
       8.50000000      90.00000000     360.00000000      43.99211084       1.47064750
       8.60000000      90.00000000     360.00000000      43.99215057       1.47064883
       8.70000000      90.00000000     360.00000000      43.99219031       1.47065016
       8.80000000      90.00000000     360.00000000      43.99223006       1.47065149
       8.90000000      90.00000000     360.00000000      43.99226981       1.47065282
       9.00000000      90.00000000     360.00000000      43.99230956       1.47065415
       9.10000000      90.00000000     360.00000000      43.99234932       1.47065548
       9.20000000      90.00000000     360.00000000      43.99238908       1.47065681
       9.30000000      90.00000000     360.00000000      43.99242885       1.47065814
       9.40000000      90.00000000     360.00000000      43.99246862       1.47065947
       9.50000000      90.00000000     360.00000000      43.99250840       1.47066080
       9.60000000      90.00000000     360.00000000      43.99254818       1.47066212
       9.70000000      90.00000000     360.00000000      43.99258796       1.47066345
       9.80000000      90.00000000     360.00000000      43.99262775       1.47066479
       9.90000000      90.00000000     360.00000000      43.99266755       1.47066612
      10.00000000      90.00000000     360.00000000      43.99270734       1.47066745
      10.10000000      90.00000000     360.00000000      43.99274715       1.47066878
      10.20000000      90.00000000     360.00000000      43.99278695       1.47067011
      10.30000000      90.00000000     360.00000000      43.99282677       1.47067144
      10.40000000      90.00000000     360.00000000      43.99286658       1.47067277
      10.50000000      90.00000000     360.00000000      43.99290640       1.47067410
      10.60000000      90.00000000     360.00000000      43.99294623       1.47067543
      10.70000000      90.00000000     360.00000000      43.99298606       1.47067676
      10.80000000      90.00000000     360.00000000      43.99302589       1.47067809
      10.90000000      90.00000000     360.00000000      43.99306573       1.47067943
      11.00000000      90.00000000     360.00000000      43.99310557       1.47068076
      11.10000000      90.00000000     360.00000000      43.99314542       1.47068209
      11.20000000      90.00000000     360.00000000      43.99318527       1.47068342
      11.30000000      90.00000000     360.00000000      43.99322513       1.47068476
      11.40000000      90.00000000     360.00000000      43.99326499       1.47068609
      11.50000000      90.00000000     360.00000000      43.99330485       1.47068742
      11.60000000      90.00000000     360.00000000      43.99334472       1.47068875
      11.70000000      90.00000000     360.00000000      43.99338460       1.47069009
      11.80000000      90.00000000     360.00000000      43.99342448       1.47069142
      11.90000000      90.00000000     360.00000000      43.99346436       1.47069275
      12.00000000      90.00000000     360.00000000      43.99350425       1.47069409
      12.10000000      90.00000000     360.00000000      43.99354414       1.47069542
      12.20000000      90.00000000     360.00000000      43.99358403       1.47069675
      12.30000000      90.00000000     360.00000000      43.99362394       1.47069809
      12.40000000      90.00000000     360.00000000      43.99366384       1.47069942
      12.50000000      90.00000000     360.00000000      43.99370375       1.47070076
      12.60000000      90.00000000     360.00000000      43.99374367       1.47070209
      12.70000000      90.00000000     360.00000000      43.99378358       1.47070342
      12.80000000      90.00000000     360.00000000      43.99382351       1.47070476
      12.90000000      90.00000000     360.00000000      43.99386344       1.47070609
      13.00000000      90.00000000     360.00000000      43.99390337       1.47070743
      13.10000000      90.00000000     360.00000000      43.99394330       1.47070876
      13.20000000      90.00000000     360.00000000      43.99398325       1.47071010
      13.30000000      90.00000000     360.00000000      43.99402319       1.47071143
      13.40000000      90.00000000     360.00000000      43.99406314       1.47071277
      13.50000000      90.00000000     360.00000000      43.99410310       1.47071411
      13.60000000      90.00000000     360.00000000      43.99414306       1.47071544
      13.70000000      90.00000000     360.00000000      43.99418302       1.47071678
      13.80000000      90.00000000     360.00000000      43.99422299       1.47071811
      13.90000000      90.00000000     360.00000000      43.99426296       1.47071945
      14.00000000      90.00000000     360.00000000      43.99430294       1.47072079
      14.10000000      90.00000000     360.00000000      43.99434292       1.47072212
      14.20000000      90.00000000     360.00000000      43.99438291       1.47072346
      14.30000000      90.00000000     360.00000000      43.99442290       1.47072480
      14.40000000      90.00000000     360.00000000      43.99446289       1.47072613
      14.50000000      90.00000000     360.00000000      43.99450289       1.47072747
      14.60000000      90.00000000     360.00000000      43.99454290       1.47072881
      14.70000000      90.00000000     360.00000000      43.99458290       1.47073015
      14.80000000      90.00000000     360.00000000      43.99462292       1.47073148
      14.90000000      90.00000000     360.00000000      43.99466294       1.47073282
      15.00000000      90.00000000     360.00000000      43.99470296       1.47073416
      15.10000000      90.00000000     360.00000000      43.99474298       1.47073550
      15.20000000      90.00000000     360.00000000      43.99478302       1.47073684
      15.30000000      90.00000000     360.00000000      43.99482305       1.47073817
      15.40000000      90.00000000     360.00000000      43.99486309       1.47073951
      15.50000000      90.00000000     360.00000000      43.99490314       1.47074085
      15.60000000      90.00000000     360.00000000      43.99494319       1.47074219
      15.70000000      90.00000000     360.00000000      43.99498324       1.47074353
      15.80000000      90.00000000     360.00000000      43.99502330       1.47074487
      15.90000000      90.00000000     360.00000000      43.99506336       1.47074621
      16.00000000      90.00000000     360.00000000      43.99510343       1.47074755
      16.10000000      90.00000000     360.00000000      43.99514350       1.47074889
      16.20000000      90.00000000     360.00000000      43.99518358       1.47075023
      16.30000000      90.00000000     360.00000000      43.99522366       1.47075157
      16.40000000      90.00000000     360.00000000      43.99526374       1.47075291
      16.50000000      90.00000000     360.00000000      43.99530383       1.47075425
      16.60000000      90.00000000     360.00000000      43.99534393       1.47075559
      16.70000000      90.00000000     360.00000000      43.99538402       1.47075693
      16.80000000      90.00000000     360.00000000      43.99542413       1.47075827
      16.90000000      90.00000000     360.00000000      43.99546424       1.47075961
      17.00000000      90.00000000     360.00000000      43.99550435       1.47076095
      17.10000000      90.00000000     360.00000000      43.99554447       1.47076229
      17.20000000      90.00000000     360.00000000      43.99558459       1.47076363
      17.30000000      90.00000000     360.00000000      43.99562471       1.47076497
      17.40000000      90.00000000     360.00000000      43.99566484       1.47076631
      17.50000000      90.00000000     360.00000000      43.99570498       1.47076766
      17.60000000      90.00000000     360.00000000      43.99574512       1.47076900
      17.70000000      90.00000000     360.00000000      43.99578526       1.47077034
      17.80000000      90.00000000     360.00000000      43.99582541       1.47077168
      17.90000000      90.00000000     360.00000000      43.99586556       1.47077302
      18.00000000      90.00000000     360.00000000      43.99590572       1.47077437
      18.10000000      90.00000000     360.00000000      43.99594588       1.47077571
      18.20000000      90.00000000     360.00000000      43.99598605       1.47077705
      18.30000000      90.00000000     360.00000000      43.99602622       1.47077840
      18.40000000      90.00000000     360.00000000      43.99606640       1.47077974
      18.50000000      90.00000000     360.00000000      43.99610658       1.47078108
      18.60000000      90.00000000     360.00000000      43.99614676       1.47078242
      18.70000000      90.00000000     360.00000000      43.99618695       1.47078377
      18.80000000      90.00000000     360.00000000      43.99622715       1.47078511
      18.90000000      90.00000000     360.00000000      43.99626734       1.47078646
      19.00000000      90.00000000     360.00000000      43.99630755       1.47078780
      19.10000000      90.00000000     360.00000000      43.99634776       1.47078914
      19.20000000      90.00000000     360.00000000      43.99638797       1.47079049
      19.30000000      90.00000000     360.00000000      43.99642818       1.47079183
      19.40000000      90.00000000     360.00000000      43.99646841       1.47079318
      19.50000000      90.00000000     360.00000000      43.99650863       1.47079452
      19.60000000      90.00000000     360.00000000      43.99654886       1.47079587
      19.70000000      90.00000000     360.00000000      43.99658910       1.47079721
      19.80000000      90.00000000     360.00000000      43.99662934       1.47079856
      19.90000000      90.00000000     360.00000000      43.99666958       1.47079990
      20.00000000      90.00000000     360.00000000      43.99670983       1.47080125
      20.10000000      90.00000000     360.00000000      43.99675008       1.47080259
      20.20000000      90.00000000     360.00000000      43.99679034       1.47080394
      20.30000000      90.00000000     360.00000000      43.99683060       1.47080529
      20.40000000      90.00000000     360.00000000      43.99687087       1.47080663
      20.50000000      90.00000000     360.00000000      43.99691114       1.47080798
      20.60000000      90.00000000     360.00000000      43.99695142       1.47080932
      20.70000000      90.00000000     360.00000000      43.99699170       1.47081067
      20.80000000      90.00000000     360.00000000      43.99703198       1.47081202
      20.90000000      90.00000000     360.00000000      43.99707227       1.47081336
      21.00000000      90.00000000     360.00000000      43.99711256       1.47081471
      21.10000000      90.00000000     360.00000000      43.99715286       1.47081606
      21.20000000      90.00000000     360.00000000      43.99719317       1.47081741
      21.30000000      90.00000000     360.00000000      43.99723347       1.47081875
      21.40000000      90.00000000     360.00000000      43.99727379       1.47082010
      21.50000000      90.00000000     360.00000000      43.99731410       1.47082145
      21.60000000      90.00000000     360.00000000      43.99735443       1.47082280
      21.70000000      90.00000000     360.00000000      43.99739475       1.47082414
      21.80000000      90.00000000     360.00000000      43.99743508       1.47082549
      21.90000000      90.00000000     360.00000000      43.99747542       1.47082684
      22.00000000      90.00000000     360.00000000      43.99751576       1.47082819
      22.10000000      90.00000000     360.00000000      43.99755610       1.47082954
      22.20000000      90.00000000     360.00000000      43.99759645       1.47083089
      22.30000000      90.00000000     360.00000000      43.99763680       1.47083224
      22.40000000      90.00000000     360.00000000      43.99767716       1.47083359
      22.50000000      90.00000000     360.00000000      43.99771752       1.47083494
      22.60000000      90.00000000     360.00000000      43.99775789       1.47083628
      22.70000000      90.00000000     360.00000000      43.99779826       1.47083763
      22.80000000      90.00000000     360.00000000      43.99783864       1.47083898
      22.90000000      90.00000000     360.00000000      43.99787902       1.47084033
      23.00000000      90.00000000     360.00000000      43.99791941       1.47084168
