 # applied field (T), theta (degree), phi (degree), abs for RE 3-4
     0.00000     0.19158   135.00000     3.46358     0.19158    45.00000     3.46358
     0.10000     1.05296     5.68591     3.46616     1.33097     7.27849     3.46347
     0.20000     2.23308     1.88183     3.46858     2.51351     4.61127     3.46321
     0.30000     3.41733     0.71168     3.47083     3.69859     3.65576     3.46280
     0.40000     4.60358     0.14467     3.47288     4.88497     3.16727     3.46225
     0.50000     5.79157   359.81028     3.47473     6.07254     2.87233     3.46156
     0.60000     6.98136   359.58967     3.47637     7.26139     2.67613     3.46073
     0.70000     8.22711   359.42700     3.47783     8.50565     2.53174     3.45973
     0.80000     9.42089   359.31127     3.47900     9.69755     2.43003     3.45865
     0.90000    10.67104   359.21745     3.47995    10.94534     2.34901     3.45738
     1.00000    11.92362   359.14273     3.48062    12.19519     2.28605     3.45599
     1.10000    13.17873   359.08160     3.48100    13.44727     2.23611     3.45448
     1.20000    14.49107   359.02843     3.48108    14.75620     2.19432     3.45278
     1.30000    15.80636   358.98342     3.48083    16.06789     2.16051     3.45097
     1.40000    17.12467   358.94465     3.48024    17.38248     2.13285     3.44905
     1.50000    18.50109   358.90947     3.47925    18.75496     2.10918     3.44695
     1.60000    19.93611   358.87733     3.47781    20.18586     2.08894     3.44466
     1.70000    21.37494   358.84883     3.47596    21.62059     2.07226     3.44229
     1.80000    22.81767   358.82331     3.47370    23.05927     2.05844     3.43983
     1.90000    24.37562   358.79855     3.47079    24.61288     2.04611     3.43711
     2.00000    25.93830   358.77615     3.46741    26.17124     2.03592     3.43432
     2.10000    27.56180   358.75502     3.46341    27.79018     2.02716     3.43139
     2.20000    29.24682   358.73505     3.45876    29.47027     2.01963     3.42830
     2.30000    31.05048   358.71551     3.45326    31.26822     2.01294     3.42499
     2.40000    32.86105   358.69752     3.44724    33.07235     2.00730     3.42167
     2.50000    34.84929   358.67929     3.44012    35.05232     2.00204     3.41804
     2.60000    36.96059   358.66136     3.43205    37.15298     1.99719     3.41423
     2.70000    39.13946   358.64406     3.42331    39.31831     1.99267     3.41038
     2.80000    41.56022   358.62585     3.41326    41.72027     1.98794     3.40622
     2.90000    44.22695   358.60655     3.40201    44.36098     1.98276     3.40180
     3.00000    47.14391   358.58576     3.38984    47.24242     1.97679     3.39719
     3.10000    50.43283   358.56202     3.37669    50.48218     1.96935     3.39229
     3.20000    54.27711   358.53307     3.36274    54.25760     1.95927     3.38697
     3.30000    58.92243   358.49557     3.34876    58.80692     1.94467     3.38112
     3.40000    65.03364   358.44216     3.33637    64.78291     1.92080     3.37433
     3.50000    74.41046   358.35728     3.33184    73.97379     1.87301     3.36566
     3.60000    90.28402   358.23717     3.35575    89.71598     1.76283     3.35575
     3.70000    90.28401   358.23724     3.35587    89.71599     1.76276     3.35587
     3.80000    90.28400   358.23730     3.35598    89.71600     1.76270     3.35598
     3.90000    90.28400   358.23737     3.35610    89.71600     1.76263     3.35610
     4.00000    90.28399   358.23744     3.35621    89.71601     1.76256     3.35621
     4.10000    90.28399   358.23750     3.35633    89.71601     1.76250     3.35633
     4.20000    90.28398   358.23757     3.35644    89.71602     1.76243     3.35644
     4.30000    90.28398   358.23763     3.35656    89.71602     1.76237     3.35656
     4.40000    90.28397   358.23770     3.35667    89.71603     1.76230     3.35667
     4.50000    90.28396   358.23777     3.35679    89.71604     1.76223     3.35679
     4.60000    90.28396   358.23783     3.35690    89.71604     1.76217     3.35690
     4.70000    90.28395   358.23790     3.35702    89.71605     1.76210     3.35702
     4.80000    90.28395   358.23797     3.35713    89.71605     1.76203     3.35713
     4.90000    90.28394   358.23803     3.35725    89.71606     1.76197     3.35725
     5.00000    90.28393   358.23810     3.35736    89.71607     1.76190     3.35736
     5.10000    90.28393   358.23816     3.35748    89.71607     1.76184     3.35748
     5.20000    90.28392   358.23823     3.35759    89.71608     1.76177     3.35759
     5.30000    90.28392   358.23830     3.35771    89.71608     1.76170     3.35771
     5.40000    90.28391   358.23836     3.35782    89.71609     1.76164     3.35782
     5.50000    90.28390   358.23843     3.35794    89.71610     1.76157     3.35794
     5.60000    90.28390   358.23849     3.35805    89.71610     1.76151     3.35805
     5.70000    90.28389   358.23856     3.35817    89.71611     1.76144     3.35817
     5.80000    90.28389   358.23863     3.35828    89.71611     1.76137     3.35828
     5.90000    90.28388   358.23869     3.35840    89.71612     1.76131     3.35840
     6.00000    90.28388   358.23876     3.35851    89.71612     1.76124     3.35851
     6.10000    90.28387   358.23882     3.35863    89.71613     1.76118     3.35863
     6.20000    90.28386   358.23889     3.35874    89.71614     1.76111     3.35874
     6.30000    90.28386   358.23896     3.35886    89.71614     1.76104     3.35886
     6.40000    90.28385   358.23902     3.35897    89.71615     1.76098     3.35897
     6.50000    90.28385   358.23909     3.35909    89.71615     1.76091     3.35909
     6.60000    90.28384   358.23915     3.35920    89.71616     1.76085     3.35920
     6.70000    90.28383   358.23922     3.35931    89.71617     1.76078     3.35931
     6.80000    90.28383   358.23928     3.35943    89.71617     1.76072     3.35943
     6.90000    90.28382   358.23935     3.35954    89.71618     1.76065     3.35954
     7.00000    90.28382   358.23942     3.35966    89.71618     1.76058     3.35966
     7.10000    90.28381   358.23948     3.35977    89.71619     1.76052     3.35977
     7.20000    90.28380   358.23955     3.35989    89.71620     1.76045     3.35989
     7.30000    90.28380   358.23961     3.36000    89.71620     1.76039     3.36000
     7.40000    90.28379   358.23968     3.36012    89.71621     1.76032     3.36012
     7.50000    90.28379   358.23975     3.36023    89.71621     1.76025     3.36023
     7.60000    90.28378   358.23981     3.36034    89.71622     1.76019     3.36034
     7.70000    90.28377   358.23988     3.36046    89.71623     1.76012     3.36046
     7.80000    90.28377   358.23994     3.36057    89.71623     1.76006     3.36057
     7.90000    90.28376   358.24001     3.36069    89.71624     1.75999     3.36069
     8.00000    90.28376   358.24007     3.36080    89.71624     1.75993     3.36080
     8.10000    90.28375   358.24014     3.36092    89.71625     1.75986     3.36092
     8.20000    90.28375   358.24021     3.36103    89.71625     1.75979     3.36103
     8.30000    90.28374   358.24027     3.36114    89.71626     1.75973     3.36114
     8.40000    90.28373   358.24034     3.36126    89.71627     1.75966     3.36126
     8.50000    90.28373   358.24040     3.36137    89.71627     1.75960     3.36137
     8.60000    90.28372   358.24047     3.36149    89.71628     1.75953     3.36149
     8.70000    90.28372   358.24053     3.36160    89.71628     1.75947     3.36160
     8.80000    90.28371   358.24060     3.36171    89.71629     1.75940     3.36171
     8.90000    90.28370   358.24067     3.36183    89.71630     1.75933     3.36183
     9.00000    90.28370   358.24073     3.36194    89.71630     1.75927     3.36194
     9.10000    90.28369   358.24080     3.36205    89.71631     1.75920     3.36205
     9.20000    90.28369   358.24086     3.36217    89.71631     1.75914     3.36217
     9.30000    90.28368   358.24093     3.36228    89.71632     1.75907     3.36228
     9.40000    90.28367   358.24099     3.36240    89.71633     1.75901     3.36240
     9.50000    90.28367   358.24106     3.36251    89.71633     1.75894     3.36251
     9.60000    90.28366   358.24112     3.36262    89.71634     1.75888     3.36262
     9.70000    90.28366   358.24119     3.36274    89.71634     1.75881     3.36274
     9.80000    90.28365   358.24126     3.36285    89.71635     1.75874     3.36285
     9.90000    90.28365   358.24132     3.36296    89.71635     1.75868     3.36296
    10.00000    90.28364   358.24139     3.36308    89.71636     1.75861     3.36308
    10.10000    90.28363   358.24145     3.36319    89.71637     1.75855     3.36319
    10.20000    90.28363   358.24152     3.36330    89.71637     1.75848     3.36330
    10.30000    90.28362   358.24158     3.36342    89.71638     1.75842     3.36342
    10.40000    90.28362   358.24165     3.36353    89.71638     1.75835     3.36353
    10.50000    90.28361   358.24171     3.36364    89.71639     1.75829     3.36364
    10.60000    90.28360   358.24178     3.36376    89.71640     1.75822     3.36376
    10.70000    90.28360   358.24184     3.36387    89.71640     1.75816     3.36387
    10.80000    90.28359   358.24191     3.36398    89.71641     1.75809     3.36398
    10.90000    90.28359   358.24198     3.36410    89.71641     1.75802     3.36410
    11.00000    90.28358   358.24204     3.36421    89.71642     1.75796     3.36421
    11.10000    90.28357   358.24211     3.36432    89.71643     1.75789     3.36432
    11.20000    90.28357   358.24217     3.36444    89.71643     1.75783     3.36444
    11.30000    90.28356   358.24224     3.36455    89.71644     1.75776     3.36455
    11.40000    90.28356   358.24230     3.36466    89.71644     1.75770     3.36466
    11.50000    90.28355   358.24237     3.36478    89.71645     1.75763     3.36478
    11.60000    90.28355   358.24243     3.36489    89.71645     1.75757     3.36489
    11.70000    90.28354   358.24250     3.36500    89.71646     1.75750     3.36500
    11.80000    90.28353   358.24256     3.36512    89.71647     1.75744     3.36512
    11.90000    90.28353   358.24263     3.36523    89.71647     1.75737     3.36523
    12.00000    90.28352   358.24269     3.36534    89.71648     1.75731     3.36534
    12.10000    90.28352   358.24276     3.36545    89.71648     1.75724     3.36545
    12.20000    90.28351   358.24282     3.36557    89.71649     1.75718     3.36557
    12.30000    90.28350   358.24289     3.36568    89.71650     1.75711     3.36568
    12.40000    90.28350   358.24295     3.36579    89.71650     1.75705     3.36579
    12.50000    90.28349   358.24302     3.36590    89.71651     1.75698     3.36590
    12.60000    90.28349   358.24309     3.36602    89.71651     1.75691     3.36602
    12.70000    90.28348   358.24315     3.36613    89.71652     1.75685     3.36613
    12.80000    90.28347   358.24322     3.36624    89.71653     1.75678     3.36624
    12.90000    90.28347   358.24328     3.36636    89.71653     1.75672     3.36636
    13.00000    90.28346   358.24335     3.36647    89.71654     1.75665     3.36647
    13.10000    90.28346   358.24341     3.36658    89.71654     1.75659     3.36658
    13.20000    90.28345   358.24348     3.36669    89.71655     1.75652     3.36669
    13.30000    90.28345   358.24354     3.36681    89.71655     1.75646     3.36681
    13.40000    90.28344   358.24361     3.36692    89.71656     1.75639     3.36692
    13.50000    90.28343   358.24367     3.36703    89.71657     1.75633     3.36703
    13.60000    90.28343   358.24374     3.36714    89.71657     1.75626     3.36714
    13.70000    90.28342   358.24380     3.36726    89.71658     1.75620     3.36726
    13.80000    90.28342   358.24387     3.36737    89.71658     1.75613     3.36737
    13.90000    90.28341   358.24393     3.36748    89.71659     1.75607     3.36748
    14.00000    90.28340   358.24400     3.36759    89.71660     1.75600     3.36759
    14.10000    90.28340   358.24406     3.36770    89.71660     1.75594     3.36770
    14.20000    90.28339   358.24413     3.36782    89.71661     1.75587     3.36782
    14.30000    90.28339   358.24419     3.36793    89.71661     1.75581     3.36793
    14.40000    90.28338   358.24426     3.36804    89.71662     1.75574     3.36804
    14.50000    90.28337   358.24432     3.36815    89.71663     1.75568     3.36815
    14.60000    90.28337   358.24439     3.36827    89.71663     1.75561     3.36827
    14.70000    90.28336   358.24445     3.36838    89.71664     1.75555     3.36838
    14.80000    90.28336   358.24452     3.36849    89.71664     1.75548     3.36849
    14.90000    90.28335   358.24458     3.36860    89.71665     1.75542     3.36860
    15.00000    90.28335   358.24465     3.36871    89.71665     1.75535     3.36871
    15.10000    90.28334   358.24471     3.36883    89.71666     1.75529     3.36883
    15.20000    90.28333   358.24478     3.36894    89.71667     1.75522     3.36894
    15.30000    90.28333   358.24484     3.36905    89.71667     1.75516     3.36905
    15.40000    90.28332   358.24491     3.36916    89.71668     1.75509     3.36916
    15.50000    90.28332   358.24497     3.36927    89.71668     1.75503     3.36927
    15.60000    90.28331   358.24504     3.36938    89.71669     1.75496     3.36938
    15.70000    90.28330   358.24510     3.36950    89.71670     1.75490     3.36950
    15.80000    90.28330   358.24517     3.36961    89.71670     1.75483     3.36961
    15.90000    90.28329   358.24523     3.36972    89.71671     1.75477     3.36972
    16.00000    90.28329   358.24530     3.36983    89.71671     1.75470     3.36983
    16.10000    90.28328   358.24536     3.36994    89.71672     1.75464     3.36994
    16.20000    90.28327   358.24543     3.37005    89.71673     1.75457     3.37005
    16.30000    90.28327   358.24549     3.37017    89.71673     1.75451     3.37017
    16.40000    90.28326   358.24555     3.37028    89.71674     1.75445     3.37028
    16.50000    90.28326   358.24562     3.37039    89.71674     1.75438     3.37039
    16.60000    90.28325   358.24568     3.37050    89.71675     1.75432     3.37050
    16.70000    90.28325   358.24575     3.37061    89.71675     1.75425     3.37061
    16.80000    90.28324   358.24581     3.37072    89.71676     1.75419     3.37072
    16.90000    90.28323   358.24588     3.37084    89.71677     1.75412     3.37084
    17.00000    90.28323   358.24594     3.37095    89.71677     1.75406     3.37095
    17.10000    90.28322   358.24601     3.37106    89.71678     1.75399     3.37106
    17.20000    90.28322   358.24607     3.37117    89.71678     1.75393     3.37117
    17.30000    90.28321   358.24614     3.37128    89.71679     1.75386     3.37128
    17.40000    90.28320   358.24620     3.37139    89.71680     1.75380     3.37139
    17.50000    90.28320   358.24627     3.37150    89.71680     1.75373     3.37150
    17.60000    90.28319   358.24633     3.37161    89.71681     1.75367     3.37161
    17.70000    90.28319   358.24640     3.37173    89.71681     1.75360     3.37173
    17.80000    90.28318   358.24646     3.37184    89.71682     1.75354     3.37184
    17.90000    90.28317   358.24653     3.37195    89.71683     1.75347     3.37195
    18.00000    90.28317   358.24659     3.37206    89.71683     1.75341     3.37206
    18.10000    90.28316   358.24665     3.37217    89.71684     1.75335     3.37217
    18.20000    90.28316   358.24672     3.37228    89.71684     1.75328     3.37228
    18.30000    90.28315   358.24678     3.37239    89.71685     1.75322     3.37239
    18.40000    90.28315   358.24685     3.37250    89.71685     1.75315     3.37250
    18.50000    90.28314   358.24691     3.37261    89.71686     1.75309     3.37261
    18.60000    90.28313   358.24698     3.37272    89.71687     1.75302     3.37272
    18.70000    90.28313   358.24704     3.37283    89.71687     1.75296     3.37283
    18.80000    90.28312   358.24711     3.37295    89.71688     1.75289     3.37295
    18.90000    90.28312   358.24717     3.37306    89.71688     1.75283     3.37306
    19.00000    90.28311   358.24724     3.37317    89.71689     1.75276     3.37317
    19.10000    90.28310   358.24730     3.37328    89.71690     1.75270     3.37328
    19.20000    90.28310   358.24736     3.37339    89.71690     1.75264     3.37339
    19.30000    90.28309   358.24743     3.37350    89.71691     1.75257     3.37350
    19.40000    90.28309   358.24749     3.37361    89.71691     1.75251     3.37361
    19.50000    90.28308   358.24756     3.37372    89.71692     1.75244     3.37372
    19.60000    90.28308   358.24762     3.37383    89.71692     1.75238     3.37383
    19.70000    90.28307   358.24769     3.37394    89.71693     1.75231     3.37394
    19.80000    90.28306   358.24775     3.37405    89.71694     1.75225     3.37405
    19.90000    90.28306   358.24782     3.37416    89.71694     1.75218     3.37416
    20.00000    90.28305   358.24788     3.37427    89.71695     1.75212     3.37427
    20.10000    90.28305   358.24794     3.37438    89.71695     1.75206     3.37438
    20.20000    90.28304   358.24801     3.37449    89.71696     1.75199     3.37449
    20.30000    90.28303   358.24807     3.37460    89.71697     1.75193     3.37460
    20.40000    90.28303   358.24814     3.37471    89.71697     1.75186     3.37471
    20.50000    90.28302   358.24820     3.37482    89.71698     1.75180     3.37482
    20.60000    90.28302   358.24827     3.37494    89.71698     1.75173     3.37494
    20.70000    90.28301   358.24833     3.37505    89.71699     1.75167     3.37505
    20.80000    90.28300   358.24839     3.37516    89.71700     1.75161     3.37516
    20.90000    90.28300   358.24846     3.37527    89.71700     1.75154     3.37527
    21.00000    90.28299   358.24852     3.37538    89.71701     1.75148     3.37538
    21.10000    90.28299   358.24859     3.37549    89.71701     1.75141     3.37549
    21.20000    90.28298   358.24865     3.37560    89.71702     1.75135     3.37560
    21.30000    90.28298   358.24872     3.37571    89.71702     1.75128     3.37571
    21.40000    90.28297   358.24878     3.37582    89.71703     1.75122     3.37582
    21.50000    90.28296   358.24884     3.37593    89.71704     1.75116     3.37593
    21.60000    90.28296   358.24891     3.37604    89.71704     1.75109     3.37604
    21.70000    90.28295   358.24897     3.37615    89.71705     1.75103     3.37615
    21.80000    90.28295   358.24904     3.37626    89.71705     1.75096     3.37626
    21.90000    90.28294   358.24910     3.37637    89.71706     1.75090     3.37637
    22.00000    90.28293   358.24916     3.37648    89.71707     1.75084     3.37648
    22.10000    90.28293   358.24923     3.37659    89.71707     1.75077     3.37659
    22.20000    90.28292   358.24929     3.37670    89.71708     1.75071     3.37670
    22.30000    90.28292   358.24936     3.37681    89.71708     1.75064     3.37681
    22.40000    90.28291   358.24942     3.37691    89.71709     1.75058     3.37691
    22.50000    90.28290   358.24949     3.37702    89.71710     1.75051     3.37702
    22.60000    90.28290   358.24955     3.37713    89.71710     1.75045     3.37713
    22.70000    90.28289   358.24961     3.37724    89.71711     1.75039     3.37724
    22.80000    90.28289   358.24968     3.37735    89.71711     1.75032     3.37735
    22.90000    90.28288   358.24974     3.37746    89.71712     1.75026     3.37746
    23.00000    90.28288   358.24981     3.37757    89.71712     1.75019     3.37757
    23.10000    90.28287   358.24987     3.37768    89.71713     1.75013     3.37768
    23.20000    90.28286   358.24993     3.37779    89.71714     1.75007     3.37779
    23.30000    90.28286   358.25000     3.37790    89.71714     1.75000     3.37790
