 # applied field (T), theta (degree), phi (degree), abs for RE 3-4
     0.00000   180.00000   360.00000     4.40280   180.00000   360.00000     4.40280
     0.10000   179.58217   219.64258     4.40279   179.58217   230.35742     4.40279
     0.20000   179.16429   219.64165     4.40276   179.16429   230.35835     4.40276
     0.30000   178.74631   219.64010     4.40272   178.74631   230.35990     4.40272
     0.40000    90.00000   216.40463     4.40076    90.00000   233.59537     4.40076
     0.50000    90.00000   216.40524     4.40072    90.00000   233.59476     4.40072
     0.60000    90.00000   216.40584     4.40068    90.00000   233.59416     4.40068
     0.70000    90.00000   216.40644     4.40064    90.00000   233.59356     4.40064
     0.80000    90.00000   216.40704     4.40060    90.00000   233.59296     4.40060
     0.90000    90.00000   216.40765     4.40056    90.00000   233.59235     4.40056
     1.00000    90.00000   216.40825     4.40052    90.00000   233.59175     4.40052
     1.10000    90.00000   216.40885     4.40048    90.00000   233.59115     4.40048
     1.20000    90.00000   216.40945     4.40044    90.00000   233.59055     4.40044
     1.30000    90.00000   216.41005     4.40040    90.00000   233.58995     4.40040
     1.40000    90.00000   216.41065     4.40036    90.00000   233.58935     4.40036
     1.50000    90.00000   216.41125     4.40032    90.00000   233.58875     4.40032
     1.60000    90.00000   216.41185     4.40028    90.00000   233.58815     4.40028
     1.70000    90.00000   216.41246     4.40024    90.00000   233.58754     4.40024
     1.80000    90.00000   216.41306     4.40021    90.00000   233.58694     4.40021
     1.90000    90.00000   216.41366     4.40017    90.00000   233.58634     4.40017
     2.00000    90.00000   216.41425     4.40013    90.00000   233.58575     4.40013
     2.10000    90.00000   216.41485     4.40009    90.00000   233.58515     4.40009
     2.20000    90.00000   216.41545     4.40005    90.00000   233.58455     4.40005
     2.30000    90.00000   216.41605     4.40001    90.00000   233.58395     4.40001
     2.40000    90.00000   216.41665     4.39997    90.00000   233.58335     4.39997
     2.50000    90.00000   216.41725     4.39993    90.00000   233.58275     4.39993
     2.60000    90.00000   216.41785     4.39989    90.00000   233.58215     4.39989
     2.70000    90.00000   216.41844     4.39985    90.00000   233.58156     4.39985
     2.80000    90.00000   216.41904     4.39981    90.00000   233.58096     4.39981
     2.90000    90.00000   216.41964     4.39977    90.00000   233.58036     4.39977
     3.00000    90.00000   216.42024     4.39973    90.00000   233.57976     4.39973
     3.10000    90.00000   216.42083     4.39969    90.00000   233.57917     4.39969
     3.20000    90.00000   216.42143     4.39965    90.00000   233.57857     4.39965
     3.30000    90.00000   216.42203     4.39961    90.00000   233.57797     4.39961
     3.40000    90.00000   216.42262     4.39957    90.00000   233.57738     4.39957
     3.50000    90.00000   216.42322     4.39953    90.00000   233.57678     4.39953
     3.60000    90.00000   216.42381     4.39949    90.00000   233.57619     4.39949
     3.70000    90.00000   216.42441     4.39945    90.00000   233.57559     4.39945
     3.80000    90.00000   216.42501     4.39941    90.00000   233.57499     4.39941
     3.90000    90.00000   216.42560     4.39937    90.00000   233.57440     4.39937
     4.00000    90.00000   216.42619     4.39933    90.00000   233.57381     4.39933
     4.10000    90.00000   216.42679     4.39929    90.00000   233.57321     4.39929
     4.20000    90.00000   216.42738     4.39925    90.00000   233.57262     4.39925
     4.30000    90.00000   216.42798     4.39921    90.00000   233.57202     4.39921
     4.40000    90.00000   216.42857     4.39917    90.00000   233.57143     4.39917
     4.50000    90.00000   216.42916     4.39913    90.00000   233.57084     4.39913
     4.60000    90.00000   216.42976     4.39909    90.00000   233.57024     4.39909
     4.70000    90.00000   216.43035     4.39905    90.00000   233.56965     4.39905
     4.80000    90.00000   216.43094     4.39901    90.00000   233.56906     4.39901
     4.90000    90.00000   216.43154     4.39897    90.00000   233.56846     4.39897
     5.00000    90.00000   216.43213     4.39893    90.00000   233.56787     4.39893
     5.10000    90.00000   216.43272     4.39889    90.00000   233.56728     4.39889
     5.20000    90.00000   216.43331     4.39885    90.00000   233.56669     4.39885
     5.30000    90.00000   216.43390     4.39881    90.00000   233.56610     4.39881
     5.40000    90.00000   216.43450     4.39877    90.00000   233.56550     4.39877
     5.50000    90.00000   216.43509     4.39873    90.00000   233.56491     4.39873
     5.60000    90.00000   216.43568     4.39869    90.00000   233.56432     4.39869
     5.70000    90.00000   216.43627     4.39865    90.00000   233.56373     4.39865
     5.80000    90.00000   216.43686     4.39861    90.00000   233.56314     4.39861
     5.90000    90.00000   216.43745     4.39857    90.00000   233.56255     4.39857
     6.00000    90.00000   216.43804     4.39853    90.00000   233.56196     4.39853
     6.10000    90.00000   216.43863     4.39849    90.00000   233.56137     4.39849
     6.20000    90.00000   216.43922     4.39845    90.00000   233.56078     4.39845
     6.30000    90.00000   216.43981     4.39841    90.00000   233.56019     4.39841
     6.40000    90.00000   216.44040     4.39837    90.00000   233.55960     4.39837
     6.50000    90.00000   216.44099     4.39832    90.00000   233.55901     4.39832
     6.60000    90.00000   216.44157     4.39828    90.00000   233.55843     4.39828
     6.70000    90.00000   216.44216     4.39824    90.00000   233.55784     4.39824
     6.80000    90.00000   216.44275     4.39820    90.00000   233.55725     4.39820
     6.90000    90.00000   216.44334     4.39816    90.00000   233.55666     4.39816
     7.00000    90.00000   216.44393     4.39812    90.00000   233.55607     4.39812
     7.10000    90.00000   216.44451     4.39808    90.00000   233.55549     4.39808
     7.20000    90.00000   216.44510     4.39804    90.00000   233.55490     4.39804
     7.30000    90.00000   216.44569     4.39800    90.00000   233.55431     4.39800
     7.40000    90.00000   216.44627     4.39796    90.00000   233.55373     4.39796
     7.50000    90.00000   216.44686     4.39792    90.00000   233.55314     4.39792
     7.60000    90.00000   216.44745     4.39788    90.00000   233.55255     4.39788
     7.70000    90.00000   216.44803     4.39784    90.00000   233.55197     4.39784
     7.80000    90.00000   216.44862     4.39780    90.00000   233.55138     4.39780
     7.90000    90.00000   216.44920     4.39776    90.00000   233.55080     4.39776
     8.00000    90.00000   216.44979     4.39772    90.00000   233.55021     4.39772
     8.10000    90.00000   216.45037     4.39768    90.00000   233.54963     4.39768
     8.20000    90.00000   216.45096     4.39764    90.00000   233.54904     4.39764
     8.30000    90.00000   216.45154     4.39760    90.00000   233.54846     4.39760
     8.40000    90.00000   216.45213     4.39756    90.00000   233.54787     4.39756
     8.50000    90.00000   216.45271     4.39752    90.00000   233.54729     4.39752
     8.60000    90.00000   216.45330     4.39748    90.00000   233.54670     4.39748
     8.70000    90.00000   216.45388     4.39744    90.00000   233.54612     4.39744
     8.80000    90.00000   216.45446     4.39740    90.00000   233.54554     4.39740
     8.90000    90.00000   216.45505     4.39736    90.00000   233.54495     4.39736
     9.00000    90.00000   216.45563     4.39732    90.00000   233.54437     4.39732
     9.10000    90.00000   216.45621     4.39728    90.00000   233.54379     4.39728
     9.20000    90.00000   216.45679     4.39724    90.00000   233.54321     4.39724
     9.30000    90.00000   216.45738     4.39720    90.00000   233.54262     4.39720
     9.40000    90.00000   216.45796     4.39716    90.00000   233.54204     4.39716
     9.50000    90.00000   216.45854     4.39712    90.00000   233.54146     4.39712
     9.60000    90.00000   216.45912     4.39708    90.00000   233.54088     4.39708
     9.70000    90.00000   216.45970     4.39704    90.00000   233.54030     4.39704
     9.80000    90.00000   216.46028     4.39700    90.00000   233.53972     4.39700
     9.90000    90.00000   216.46086     4.39696    90.00000   233.53914     4.39696
    10.00000    90.00000   216.46144     4.39692    90.00000   233.53856     4.39692
    10.10000    90.00000   216.46202     4.39688    90.00000   233.53798     4.39688
    10.20000    90.00000   216.46260     4.39684    90.00000   233.53740     4.39684
    10.30000    90.00000   216.46318     4.39680    90.00000   233.53682     4.39680
    10.40000    90.00000   216.46376     4.39676    90.00000   233.53624     4.39676
    10.50000    90.00000   216.46434     4.39672    90.00000   233.53566     4.39672
    10.60000    90.00000   216.46492     4.39668    90.00000   233.53508     4.39668
    10.70000    90.00000   216.46550     4.39664    90.00000   233.53450     4.39664
    10.80000    90.00000   216.46608     4.39660    90.00000   233.53392     4.39660
    10.90000    90.00000   216.46666     4.39656    90.00000   233.53334     4.39656
    11.00000    90.00000   216.46724     4.39652    90.00000   233.53276     4.39652
    11.10000    90.00000   216.46781     4.39647    90.00000   233.53219     4.39647
    11.20000    90.00000   216.46839     4.39643    90.00000   233.53161     4.39643
    11.30000    90.00000   216.46897     4.39639    90.00000   233.53103     4.39639
    11.40000    90.00000   216.46955     4.39635    90.00000   233.53045     4.39635
    11.50000    90.00000   216.47012     4.39631    90.00000   233.52988     4.39631
    11.60000    90.00000   216.47070     4.39627    90.00000   233.52930     4.39627
    11.70000    90.00000   216.47128     4.39623    90.00000   233.52872     4.39623
    11.80000    90.00000   216.47185     4.39619    90.00000   233.52815     4.39619
    11.90000    90.00000   216.47243     4.39615    90.00000   233.52757     4.39615
    12.00000    90.00000   216.47301     4.39611    90.00000   233.52699     4.39611
    12.10000    90.00000   216.47358     4.39607    90.00000   233.52642     4.39607
    12.20000    90.00000   216.47416     4.39603    90.00000   233.52584     4.39603
    12.30000    90.00000   216.47473     4.39599    90.00000   233.52527     4.39599
    12.40000    90.00000   216.47531     4.39595    90.00000   233.52469     4.39595
    12.50000    90.00000   216.47588     4.39591    90.00000   233.52412     4.39591
    12.60000    90.00000   216.47646     4.39587    90.00000   233.52354     4.39587
    12.70000    90.00000   216.47703     4.39583    90.00000   233.52297     4.39583
    12.80000    90.00000   216.47760     4.39579    90.00000   233.52240     4.39579
    12.90000    90.00000   216.47818     4.39575    90.00000   233.52182     4.39575
    13.00000    90.00000   216.47875     4.39571    90.00000   233.52125     4.39571
    13.10000    90.00000   216.47932     4.39567    90.00000   233.52068     4.39567
    13.20000    90.00000   216.47990     4.39563    90.00000   233.52010     4.39563
    13.30000    90.00000   216.48047     4.39559    90.00000   233.51953     4.39559
    13.40000    90.00000   216.48104     4.39555    90.00000   233.51896     4.39555
    13.50000    90.00000   216.48161     4.39551    90.00000   233.51839     4.39551
    13.60000    90.00000   216.48219     4.39547    90.00000   233.51781     4.39547
    13.70000    90.00000   216.48276     4.39542    90.00000   233.51724     4.39542
    13.80000    90.00000   216.48333     4.39538    90.00000   233.51667     4.39538
    13.90000    90.00000   216.48390     4.39534    90.00000   233.51610     4.39534
    14.00000    90.00000   216.48447     4.39530    90.00000   233.51553     4.39530
    14.10000    90.00000   216.48504     4.39526    90.00000   233.51496     4.39526
    14.20000    90.00000   216.48561     4.39522    90.00000   233.51439     4.39522
    14.30000    90.00000   216.48619     4.39518    90.00000   233.51381     4.39518
    14.40000    90.00000   216.48676     4.39514    90.00000   233.51324     4.39514
    14.50000    90.00000   216.48733     4.39510    90.00000   233.51267     4.39510
    14.60000    90.00000   216.48790     4.39506    90.00000   233.51210     4.39506
    14.70000    90.00000   216.48846     4.39502    90.00000   233.51154     4.39502
    14.80000    90.00000   216.48903     4.39498    90.00000   233.51097     4.39498
    14.90000    90.00000   216.48960     4.39494    90.00000   233.51040     4.39494
    15.00000    90.00000   216.49017     4.39490    90.00000   233.50983     4.39490
    15.10000    90.00000   216.49074     4.39486    90.00000   233.50926     4.39486
    15.20000    90.00000   216.49131     4.39482    90.00000   233.50869     4.39482
    15.30000    90.00000   216.49188     4.39478    90.00000   233.50812     4.39478
    15.40000    90.00000   216.49245     4.39474    90.00000   233.50755     4.39474
    15.50000    90.00000   216.49301     4.39470    90.00000   233.50699     4.39470
    15.60000    90.00000   216.49358     4.39466    90.00000   233.50642     4.39466
    15.70000    90.00000   216.49415     4.39461    90.00000   233.50585     4.39461
    15.80000    90.00000   216.49471     4.39457    90.00000   233.50529     4.39457
    15.90000    90.00000   216.49528     4.39453    90.00000   233.50472     4.39453
    16.00000    90.00000   216.49585     4.39449    90.00000   233.50415     4.39449
    16.10000    90.00000   216.49641     4.39445    90.00000   233.50359     4.39445
    16.20000    90.00000   216.49698     4.39441    90.00000   233.50302     4.39441
    16.30000    90.00000   216.49755     4.39437    90.00000   233.50245     4.39437
    16.40000    90.00000   216.49811     4.39433    90.00000   233.50189     4.39433
    16.50000    90.00000   216.49868     4.39429    90.00000   233.50132     4.39429
    16.60000    90.00000   216.49924     4.39425    90.00000   233.50076     4.39425
    16.70000    90.00000   216.49981     4.39421    90.00000   233.50019     4.39421
    16.80000    90.00000   216.50037     4.39417    90.00000   233.49963     4.39417
    16.90000    90.00000   216.50094     4.39413    90.00000   233.49906     4.39413
    17.00000    90.00000   216.50150     4.39409    90.00000   233.49850     4.39409
    17.10000    90.00000   216.50206     4.39405    90.00000   233.49794     4.39405
    17.20000    90.00000   216.50263     4.39401    90.00000   233.49737     4.39401
    17.30000    90.00000   216.50319     4.39397    90.00000   233.49681     4.39397
    17.40000    90.00000   216.50376     4.39392    90.00000   233.49624     4.39392
    17.50000    90.00000   216.50432     4.39388    90.00000   233.49568     4.39388
    17.60000    90.00000   216.50488     4.39384    90.00000   233.49512     4.39384
    17.70000    90.00000   216.50544     4.39380    90.00000   233.49456     4.39380
    17.80000    90.00000   216.50601     4.39376    90.00000   233.49399     4.39376
    17.90000    90.00000   216.50657     4.39372    90.00000   233.49343     4.39372
    18.00000    90.00000   216.50713     4.39368    90.00000   233.49287     4.39368
    18.10000    90.00000   216.50769     4.39364    90.00000   233.49231     4.39364
    18.20000    90.00000   216.50825     4.39360    90.00000   233.49175     4.39360
    18.30000    90.00000   216.50882     4.39356    90.00000   233.49118     4.39356
    18.40000    90.00000   216.50938     4.39352    90.00000   233.49062     4.39352
    18.50000    90.00000   216.50994     4.39348    90.00000   233.49006     4.39348
    18.60000    90.00000   216.51050     4.39344    90.00000   233.48950     4.39344
    18.70000    90.00000   216.51106     4.39340    90.00000   233.48894     4.39340
    18.80000    90.00000   216.51162     4.39336    90.00000   233.48838     4.39336
    18.90000    90.00000   216.51218     4.39331    90.00000   233.48782     4.39331
    19.00000    90.00000   216.51274     4.39327    90.00000   233.48726     4.39327
    19.10000    90.00000   216.51330     4.39323    90.00000   233.48670     4.39323
    19.20000    90.00000   216.51386     4.39319    90.00000   233.48614     4.39319
    19.30000    90.00000   216.51441     4.39315    90.00000   233.48559     4.39315
    19.40000    90.00000   216.51497     4.39311    90.00000   233.48503     4.39311
    19.50000    90.00000   216.51553     4.39307    90.00000   233.48447     4.39307
    19.60000    90.00000   216.51609     4.39303    90.00000   233.48391     4.39303
    19.70000    90.00000   216.51665     4.39299    90.00000   233.48335     4.39299
    19.80000    90.00000   216.51721     4.39295    90.00000   233.48279     4.39295
    19.90000    90.00000   216.51776     4.39291    90.00000   233.48224     4.39291
    20.00000    90.00000   216.51832     4.39287    90.00000   233.48168     4.39287
    20.10000    90.00000   216.51888     4.39283    90.00000   233.48112     4.39283
    20.20000    90.00000   216.51944     4.39278    90.00000   233.48056     4.39278
    20.30000    90.00000   216.51999     4.39274    90.00000   233.48001     4.39274
    20.40000    90.00000   216.52055     4.39270    90.00000   233.47945     4.39270
    20.50000    90.00000   216.52110     4.39266    90.00000   233.47890     4.39266
    20.60000    90.00000   216.52166     4.39262    90.00000   233.47834     4.39262
    20.70000    90.00000   216.52222     4.39258    90.00000   233.47778     4.39258
    20.80000    90.00000   216.52277     4.39254    90.00000   233.47723     4.39254
    20.90000    90.00000   216.52333     4.39250    90.00000   233.47667     4.39250
    21.00000    90.00000   216.52388     4.39246    90.00000   233.47612     4.39246
    21.10000    90.00000   216.52444     4.39242    90.00000   233.47556     4.39242
    21.20000    90.00000   216.52499     4.39238    90.00000   233.47501     4.39238
    21.30000    90.00000   216.52555     4.39234    90.00000   233.47445     4.39234
    21.40000    90.00000   216.52610     4.39230    90.00000   233.47390     4.39230
    21.50000    90.00000   216.52665     4.39225    90.00000   233.47335     4.39225
    21.60000    90.00000   216.52721     4.39221    90.00000   233.47279     4.39221
    21.70000    90.00000   216.52776     4.39217    90.00000   233.47224     4.39217
    21.80000    90.00000   216.52831     4.39213    90.00000   233.47169     4.39213
    21.90000    90.00000   216.52887     4.39209    90.00000   233.47113     4.39209
    22.00000    90.00000   216.52942     4.39205    90.00000   233.47058     4.39205
    22.10000    90.00000   216.52997     4.39201    90.00000   233.47003     4.39201
    22.20000    90.00000   216.53053     4.39197    90.00000   233.46947     4.39197
    22.30000    90.00000   216.53108     4.39193    90.00000   233.46892     4.39193
    22.40000    90.00000   216.53163     4.39189    90.00000   233.46837     4.39189
    22.50000    90.00000   216.53218     4.39185    90.00000   233.46782     4.39185
    22.60000    90.00000   216.53273     4.39181    90.00000   233.46727     4.39181
    22.70000    90.00000   216.53328     4.39176    90.00000   233.46672     4.39176
    22.80000    90.00000   216.53383     4.39172    90.00000   233.46617     4.39172
    22.90000    90.00000   216.53439     4.39168    90.00000   233.46561     4.39168
    23.00000    90.00000   216.53494     4.39164    90.00000   233.46506     4.39164
    23.10000    90.00000   216.53549     4.39160    90.00000   233.46451     4.39160
    23.20000    90.00000   216.53604     4.39156    90.00000   233.46396     4.39156
    23.30000    90.00000   216.53659     4.39152    90.00000   233.46341     4.39152
