 # applied field (T), theta (degree), phi (degree), abs [muB/unitcell], abs [T]
       0.00000000       0.00000000       0.00000000      42.23683557       1.42162155
       0.10000000       0.39915237      45.00000000      42.23684080       1.42162172
       0.20000000       0.79830681      45.00000000      42.23685651       1.42162225
       0.30000000       1.19746541      45.00000000      42.23688268       1.42162313
       0.40000000       1.59663023      45.00000000      42.23691932       1.42162437
       0.50000000       1.99580337      45.00000000      42.23696644       1.42162595
       0.60000000       2.39498689      45.00000000      42.23702403       1.42162789
       0.70000000       2.79418285      45.00000000      42.23709209       1.42163018
       0.80000000       3.25031419      45.00000000      42.23718170       1.42163320
       0.90000000       3.64954381      45.00000000      42.23727210       1.42163624
       1.00000000       4.04879238      45.00000000      42.23737297       1.42163964
       1.10000000       4.44806195      45.00000000      42.23748432       1.42164338
       1.20000000       4.84735457      45.00000000      42.23760615       1.42164748
       1.30000000       5.30360941      45.00000000      42.23775660       1.42165255
       1.40000000      90.00000000      45.00000000      42.24911576       1.42203488
       1.50000000      90.00000000      45.00000000      42.24915583       1.42203623
       1.60000000      90.00000000      45.00000000      42.24919591       1.42203758
       1.70000000      90.00000000      45.00000000      42.24923599       1.42203893
       1.80000000      90.00000000      45.00000000      42.24927607       1.42204027
       1.90000000      90.00000000      45.00000000      42.24931616       1.42204162
       2.00000000      90.00000000      45.00000000      42.24935625       1.42204297
       2.10000000      90.00000000      45.00000000      42.24939635       1.42204432
       2.20000000      90.00000000      45.00000000      42.24943645       1.42204567
       2.30000000      90.00000000      45.00000000      42.24947656       1.42204702
       2.40000000      90.00000000      45.00000000      42.24951667       1.42204837
       2.50000000      90.00000000      45.00000000      42.24955679       1.42204972
       2.60000000      90.00000000      45.00000000      42.24959691       1.42205107
       2.70000000      90.00000000      45.00000000      42.24963703       1.42205242
       2.80000000      90.00000000      45.00000000      42.24967716       1.42205377
       2.90000000      90.00000000      45.00000000      42.24971730       1.42205513
       3.00000000      90.00000000      45.00000000      42.24975744       1.42205648
       3.10000000      90.00000000      45.00000000      42.24979758       1.42205783
       3.20000000      90.00000000      45.00000000      42.24983773       1.42205918
       3.30000000      90.00000000      45.00000000      42.24987788       1.42206053
       3.40000000      90.00000000      45.00000000      42.24991804       1.42206188
       3.50000000      90.00000000      45.00000000      42.24995820       1.42206323
       3.60000000      90.00000000      45.00000000      42.24999837       1.42206459
       3.70000000      90.00000000      45.00000000      42.25003854       1.42206594
       3.80000000      90.00000000      45.00000000      42.25007872       1.42206729
       3.90000000      90.00000000      45.00000000      42.25011890       1.42206864
       4.00000000      90.00000000      45.00000000      42.25015908       1.42206999
       4.10000000      90.00000000      45.00000000      42.25019927       1.42207135
       4.20000000      90.00000000      45.00000000      42.25023947       1.42207270
       4.30000000      90.00000000      45.00000000      42.25027967       1.42207405
       4.40000000      90.00000000      45.00000000      42.25031987       1.42207541
       4.50000000      90.00000000      45.00000000      42.25036008       1.42207676
       4.60000000      90.00000000      45.00000000      42.25040029       1.42207811
       4.70000000      90.00000000      45.00000000      42.25044051       1.42207947
       4.80000000      90.00000000      45.00000000      42.25048073       1.42208082
       4.90000000      90.00000000      45.00000000      42.25052096       1.42208217
       5.00000000      90.00000000      45.00000000      42.25056119       1.42208353
       5.10000000      90.00000000      45.00000000      42.25060142       1.42208488
       5.20000000      90.00000000      45.00000000      42.25064166       1.42208624
       5.30000000      90.00000000      45.00000000      42.25068191       1.42208759
       5.40000000      90.00000000      45.00000000      42.25072216       1.42208895
       5.50000000      90.00000000      45.00000000      42.25076241       1.42209030
       5.60000000      90.00000000      45.00000000      42.25080267       1.42209166
       5.70000000      90.00000000      45.00000000      42.25084294       1.42209301
       5.80000000      90.00000000      45.00000000      42.25088321       1.42209437
       5.90000000      90.00000000      45.00000000      42.25092348       1.42209572
       6.00000000      90.00000000      45.00000000      42.25096376       1.42209708
       6.10000000      90.00000000      45.00000000      42.25100404       1.42209843
       6.20000000      90.00000000      45.00000000      42.25104433       1.42209979
       6.30000000      90.00000000      45.00000000      42.25108462       1.42210115
       6.40000000      90.00000000      45.00000000      42.25112491       1.42210250
       6.50000000      90.00000000      45.00000000      42.25116521       1.42210386
       6.60000000      90.00000000      45.00000000      42.25120552       1.42210522
       6.70000000      90.00000000      45.00000000      42.25124583       1.42210657
       6.80000000      90.00000000      45.00000000      42.25128615       1.42210793
       6.90000000      90.00000000      45.00000000      42.25132646       1.42210929
       7.00000000      90.00000000      45.00000000      42.25136679       1.42211064
       7.10000000      90.00000000      45.00000000      42.25140712       1.42211200
       7.20000000      90.00000000      45.00000000      42.25144745       1.42211336
       7.30000000      90.00000000      45.00000000      42.25148779       1.42211472
       7.40000000      90.00000000      45.00000000      42.25152813       1.42211607
       7.50000000      90.00000000      45.00000000      42.25156848       1.42211743
       7.60000000      90.00000000      45.00000000      42.25160883       1.42211879
       7.70000000      90.00000000      45.00000000      42.25164919       1.42212015
       7.80000000      90.00000000      45.00000000      42.25168955       1.42212151
       7.90000000      90.00000000      45.00000000      42.25172991       1.42212287
       8.00000000      90.00000000      45.00000000      42.25177028       1.42212423
       8.10000000      90.00000000      45.00000000      42.25181066       1.42212558
       8.20000000      90.00000000      45.00000000      42.25185104       1.42212694
       8.30000000      90.00000000      45.00000000      42.25189142       1.42212830
       8.40000000      90.00000000      45.00000000      42.25193181       1.42212966
       8.50000000      90.00000000      45.00000000      42.25197221       1.42213102
       8.60000000      90.00000000      45.00000000      42.25201261       1.42213238
       8.70000000      90.00000000      45.00000000      42.25205301       1.42213374
       8.80000000      90.00000000      45.00000000      42.25209342       1.42213510
       8.90000000      90.00000000      45.00000000      42.25213383       1.42213646
       9.00000000      90.00000000      45.00000000      42.25217425       1.42213782
       9.10000000      90.00000000      45.00000000      42.25221467       1.42213918
       9.20000000      90.00000000      45.00000000      42.25225509       1.42214054
       9.30000000      90.00000000      45.00000000      42.25229552       1.42214190
       9.40000000      90.00000000      45.00000000      42.25233596       1.42214326
       9.50000000      90.00000000      45.00000000      42.25237640       1.42214463
       9.60000000      90.00000000      45.00000000      42.25241685       1.42214599
       9.70000000      90.00000000      45.00000000      42.25245730       1.42214735
       9.80000000      90.00000000      45.00000000      42.25249775       1.42214871
       9.90000000      90.00000000      45.00000000      42.25253821       1.42215007
      10.00000000      90.00000000      45.00000000      42.25257867       1.42215143
      10.10000000      90.00000000      45.00000000      42.25261914       1.42215280
      10.20000000      90.00000000      45.00000000      42.25265961       1.42215416
      10.30000000      90.00000000      45.00000000      42.25270009       1.42215552
      10.40000000      90.00000000      45.00000000      42.25274057       1.42215688
      10.50000000      90.00000000      45.00000000      42.25278106       1.42215825
      10.60000000      90.00000000      45.00000000      42.25282155       1.42215961
      10.70000000      90.00000000      45.00000000      42.25286205       1.42216097
      10.80000000      90.00000000      45.00000000      42.25290255       1.42216234
      10.90000000      90.00000000      45.00000000      42.25294306       1.42216370
      11.00000000      90.00000000      45.00000000      42.25298357       1.42216506
      11.10000000      90.00000000      45.00000000      42.25302408       1.42216643
      11.20000000      90.00000000      45.00000000      42.25306460       1.42216779
      11.30000000      90.00000000      45.00000000      42.25310513       1.42216915
      11.40000000      90.00000000      45.00000000      42.25314565       1.42217052
      11.50000000      90.00000000      45.00000000      42.25318619       1.42217188
      11.60000000      90.00000000      45.00000000      42.25322673       1.42217325
      11.70000000      90.00000000      45.00000000      42.25326727       1.42217461
      11.80000000      90.00000000      45.00000000      42.25330782       1.42217598
      11.90000000      90.00000000      45.00000000      42.25334837       1.42217734
      12.00000000      90.00000000      45.00000000      42.25338893       1.42217871
      12.10000000      90.00000000      45.00000000      42.25342949       1.42218007
      12.20000000      90.00000000      45.00000000      42.25347006       1.42218144
      12.30000000      90.00000000      45.00000000      42.25351063       1.42218280
      12.40000000      90.00000000      45.00000000      42.25355120       1.42218417
      12.50000000      90.00000000      45.00000000      42.25359178       1.42218553
      12.60000000      90.00000000      45.00000000      42.25363237       1.42218690
      12.70000000      90.00000000      45.00000000      42.25367296       1.42218827
      12.80000000      90.00000000      45.00000000      42.25371355       1.42218963
      12.90000000      90.00000000      45.00000000      42.25375415       1.42219100
      13.00000000      90.00000000      45.00000000      42.25379476       1.42219237
      13.10000000      90.00000000      45.00000000      42.25383537       1.42219373
      13.20000000      90.00000000      45.00000000      42.25387598       1.42219510
      13.30000000      90.00000000      45.00000000      42.25391660       1.42219647
      13.40000000      90.00000000      45.00000000      42.25395722       1.42219783
      13.50000000      90.00000000      45.00000000      42.25399785       1.42219920
      13.60000000      90.00000000      45.00000000      42.25403848       1.42220057
      13.70000000      90.00000000      45.00000000      42.25407912       1.42220194
      13.80000000      90.00000000      45.00000000      42.25411976       1.42220330
      13.90000000      90.00000000      45.00000000      42.25416041       1.42220467
      14.00000000      90.00000000      45.00000000      42.25420106       1.42220604
      14.10000000      90.00000000      45.00000000      42.25424171       1.42220741
      14.20000000      90.00000000      45.00000000      42.25428237       1.42220878
      14.30000000      90.00000000      45.00000000      42.25432304       1.42221015
      14.40000000      90.00000000      45.00000000      42.25436371       1.42221152
      14.50000000      90.00000000      45.00000000      42.25440438       1.42221288
      14.60000000      90.00000000      45.00000000      42.25444506       1.42221425
      14.70000000      90.00000000      45.00000000      42.25448575       1.42221562
      14.80000000      90.00000000      45.00000000      42.25452644       1.42221699
      14.90000000      90.00000000      45.00000000      42.25456713       1.42221836
      15.00000000      90.00000000      45.00000000      42.25460783       1.42221973
      15.10000000      90.00000000      45.00000000      42.25464853       1.42222110
      15.20000000      90.00000000      45.00000000      42.25468924       1.42222247
      15.30000000      90.00000000      45.00000000      42.25472995       1.42222384
      15.40000000      90.00000000      45.00000000      42.25477067       1.42222521
      15.50000000      90.00000000      45.00000000      42.25481139       1.42222658
      15.60000000      90.00000000      45.00000000      42.25485211       1.42222795
      15.70000000      90.00000000      45.00000000      42.25489285       1.42222933
      15.80000000      90.00000000      45.00000000      42.25493358       1.42223070
      15.90000000      90.00000000      45.00000000      42.25497432       1.42223207
      16.00000000      90.00000000      45.00000000      42.25501507       1.42223344
      16.10000000      90.00000000      45.00000000      42.25505582       1.42223481
      16.20000000      90.00000000      45.00000000      42.25509657       1.42223618
      16.30000000      90.00000000      45.00000000      42.25513733       1.42223755
      16.40000000      90.00000000      45.00000000      42.25517810       1.42223893
      16.50000000      90.00000000      45.00000000      42.25521887       1.42224030
      16.60000000      90.00000000      45.00000000      42.25525964       1.42224167
      16.70000000      90.00000000      45.00000000      42.25530042       1.42224304
      16.80000000      90.00000000      45.00000000      42.25534120       1.42224442
      16.90000000      90.00000000      45.00000000      42.25538199       1.42224579
      17.00000000      90.00000000      45.00000000      42.25542278       1.42224716
      17.10000000      90.00000000      45.00000000      42.25546358       1.42224854
      17.20000000      90.00000000      45.00000000      42.25550438       1.42224991
      17.30000000      90.00000000      45.00000000      42.25554519       1.42225128
      17.40000000      90.00000000      45.00000000      42.25558600       1.42225266
      17.50000000      90.00000000      45.00000000      42.25562682       1.42225403
      17.60000000      90.00000000      45.00000000      42.25566764       1.42225540
      17.70000000      90.00000000      45.00000000      42.25570846       1.42225678
      17.80000000      90.00000000      45.00000000      42.25574929       1.42225815
      17.90000000      90.00000000      45.00000000      42.25579013       1.42225953
      18.00000000      90.00000000      45.00000000      42.25583097       1.42226090
      18.10000000      90.00000000      45.00000000      42.25587181       1.42226228
      18.20000000      90.00000000      45.00000000      42.25591266       1.42226365
      18.30000000      90.00000000      45.00000000      42.25595352       1.42226503
      18.40000000      90.00000000      45.00000000      42.25599437       1.42226640
      18.50000000      90.00000000      45.00000000      42.25603524       1.42226778
      18.60000000      90.00000000      45.00000000      42.25607611       1.42226915
      18.70000000      90.00000000      45.00000000      42.25611698       1.42227053
      18.80000000      90.00000000      45.00000000      42.25615786       1.42227190
      18.90000000      90.00000000      45.00000000      42.25619874       1.42227328
      19.00000000      90.00000000      45.00000000      42.25623963       1.42227466
      19.10000000      90.00000000      45.00000000      42.25628052       1.42227603
      19.20000000      90.00000000      45.00000000      42.25632142       1.42227741
      19.30000000      90.00000000      45.00000000      42.25636232       1.42227879
      19.40000000      90.00000000      45.00000000      42.25640323       1.42228016
      19.50000000      90.00000000      45.00000000      42.25644414       1.42228154
      19.60000000      90.00000000      45.00000000      42.25648505       1.42228292
      19.70000000      90.00000000      45.00000000      42.25652597       1.42228429
      19.80000000      90.00000000      45.00000000      42.25656690       1.42228567
      19.90000000      90.00000000      45.00000000      42.25660783       1.42228705
      20.00000000      90.00000000      45.00000000      42.25664876       1.42228843
      20.10000000      90.00000000      45.00000000      42.25668970       1.42228980
      20.20000000      90.00000000      45.00000000      42.25673065       1.42229118
      20.30000000      90.00000000      45.00000000      42.25677160       1.42229256
      20.40000000      90.00000000      45.00000000      42.25681255       1.42229394
      20.50000000      90.00000000      45.00000000      42.25685351       1.42229532
      20.60000000      90.00000000      45.00000000      42.25689447       1.42229670
      20.70000000      90.00000000      45.00000000      42.25693544       1.42229808
      20.80000000      90.00000000      45.00000000      42.25697641       1.42229945
      20.90000000      90.00000000      45.00000000      42.25701739       1.42230083
      21.00000000      90.00000000      45.00000000      42.25705837       1.42230221
      21.10000000      90.00000000      45.00000000      42.25709936       1.42230359
      21.20000000      90.00000000      45.00000000      42.25714035       1.42230497
      21.30000000      90.00000000      45.00000000      42.25718135       1.42230635
      21.40000000      90.00000000      45.00000000      42.25722235       1.42230773
      21.50000000      90.00000000      45.00000000      42.25726336       1.42230911
      21.60000000      90.00000000      45.00000000      42.25730437       1.42231049
      21.70000000      90.00000000      45.00000000      42.25734539       1.42231187
      21.80000000      90.00000000      45.00000000      42.25738641       1.42231325
      21.90000000      90.00000000      45.00000000      42.25742743       1.42231464
      22.00000000      90.00000000      45.00000000      42.25746846       1.42231602
      22.10000000      90.00000000      45.00000000      42.25750950       1.42231740
      22.20000000      90.00000000      45.00000000      42.25755054       1.42231878
      22.30000000      90.00000000      45.00000000      42.25759158       1.42232016
      22.40000000      90.00000000      45.00000000      42.25763263       1.42232154
      22.50000000      90.00000000      45.00000000      42.25767369       1.42232292
      22.60000000      90.00000000      45.00000000      42.25771474       1.42232431
      22.70000000      90.00000000      45.00000000      42.25775581       1.42232569
      22.80000000      90.00000000      45.00000000      42.25779688       1.42232707
      22.90000000      90.00000000      45.00000000      42.25783795       1.42232845
      23.00000000      90.00000000      45.00000000      42.25787903       1.42232984
