 # applied field (T), theta (degree), phi (degree), abs for RE 1-2
     0.00000     1.02300   315.00000     0.31080     1.02300   225.00000     0.31080
     0.10000     1.16391   319.52831     0.31082     0.89076   230.92458     0.31080
     0.20000     1.31083   323.05941     0.31083     0.77149   238.79652     0.31080
     0.30000     1.48043   326.09747     0.31086     0.66086   250.59140     0.31080
     0.40000     1.63526   328.32795     0.31089     0.59497   264.42457     0.31081
     0.50000     1.79262   330.17032     0.31092     0.57080   280.50798     0.31083
     0.60000     1.95207   331.71443     0.31096     0.59355   296.64366     0.31085
     0.70000     2.13265   333.12133     0.31101     0.66691   312.07807     0.31089
     0.80000     2.29570   334.23075     0.31107     0.76653   322.67774     0.31092
     0.90000     2.46023   335.19402     0.31112     0.88650   330.63583     0.31096
     1.00000     2.62614   336.03780     0.31118     1.01986   336.61076     0.31100
     1.10000     2.81347   336.83060     0.31126     1.17847   341.68442     0.31106
     1.20000     2.98223   337.48626     0.31134     1.32788   345.12339     0.31112
     1.30000     3.15231   338.07351     0.31141     1.48177   347.85691     0.31118
     1.40000     3.34438   338.63292     0.31151     1.65714   350.34660     0.31126
     1.50000     3.51732   339.10822     0.31160     1.81765   352.12425     0.31133
     1.60000     3.69164   339.54109     0.31170     1.98046   353.60971     0.31141
     1.70000     3.88869   339.95729     0.31181     2.16442   355.03616     0.31151
     1.80000     4.06607   340.31876     0.31192     2.33140   356.08886     0.31160
     1.90000     4.24493   340.65230     0.31203     2.50010   356.99794     0.31169
     2.00000     4.44739   340.97519     0.31216     2.69042   357.90370     0.31181
     2.10000     4.62959   341.26075     0.31228     2.86263   358.58522     0.31191
     2.20000     4.83605   341.53828     0.31243     3.05698   359.27730     0.31204
     2.30000     5.02180   341.78631     0.31256     3.23261   359.80225     0.31216
     2.40000     5.23251   342.02823     0.31272     3.43098     0.34377     0.31230
     2.50000     5.42203   342.24643     0.31286     3.61010     0.75663     0.31243
     2.60000     5.63726   342.45998     0.31303     3.81262     1.18819     0.31258
     2.70000     5.83076   342.65412     0.31318     3.99535     1.51817     0.31271
     2.80000     6.05077   342.84478     0.31336     4.20220     1.86705     0.31288
     2.90000     6.27346   343.02542     0.31354     4.41147     2.17988     0.31305
     3.00000     6.47353   343.19125     0.31370     4.60011     2.41931     0.31320
     3.10000     6.70141   343.35499     0.31390     4.81406     2.67623     0.31338
     3.20000     6.93219   343.51128     0.31410     5.03065     2.90816     0.31357
     3.30000     7.13935   343.65582     0.31427     5.22569     3.08526     0.31373
     3.40000     7.37570   343.79934     0.31448     5.44735     3.27774     0.31393
     3.50000     7.61516   343.93720     0.31470     5.67185     3.45222     0.31413
     3.60000     7.85779   344.06986     0.31492     5.89928     3.61054     0.31434
     3.70000     8.10367   344.19776     0.31514     6.12971     3.75429     0.31455
     3.80000     8.35287   344.32127     0.31537     6.36321     3.88488     0.31476
     3.90000     8.60544   344.44074     0.31560     6.59987     4.00356     0.31498
     4.00000     8.86147   344.55647     0.31583     6.83976     4.11143     0.31521
     4.10000     9.15142   344.67300     0.31611     7.11081     4.22667     0.31547
     4.20000     9.41504   344.78201     0.31635     7.35789     4.31446     0.31571
     4.30000     9.68230   344.88804     0.31660     7.60843     4.39417     0.31594
     4.40000     9.98536   344.99553     0.31689     7.89198     4.48005     0.31622
     4.50000    10.26062   345.09613     0.31714     8.15021     4.54462     0.31647
     4.60000    10.57298   345.19859     0.31743     8.44275     4.61459     0.31675
     4.70000    10.85650   345.29441     0.31769     8.70899     4.66661     0.31700
     4.80000    11.17844   345.39243     0.31799     9.01090     4.72332     0.31730
     4.90000    11.50561   345.48842     0.31830     9.31795     4.77384     0.31759
     5.00000    11.83806   345.58250     0.31860     9.63024     4.81871     0.31789
     5.10000    12.17587   345.67475     0.31891     9.94786     4.85846     0.31820
     5.20000    12.51909   345.76527     0.31922    10.27092     4.89355     0.31850
     5.30000    12.86779   345.85410     0.31953    10.59949     4.92439     0.31881
     5.40000    13.26073   345.94597     0.31989    10.96973     4.95707     0.31916
     5.50000    13.62124   346.03166     0.32020    11.31032     4.98006     0.31947
     5.60000    14.02761   346.12055     0.32056    11.69432     5.00463     0.31982
     5.70000    14.44118   346.20803     0.32091    12.08577     5.02550     0.32018
     5.80000    14.86201   346.29411     0.32127    12.48478     5.04306     0.32054
     5.90000    15.29014   346.37882     0.32163    12.89144     5.05767     0.32089
     6.00000    15.76922   346.46699     0.32203    13.34705     5.07272     0.32129
     6.10000    16.25743   346.55384     0.32243    13.81237     5.08481     0.32169
     6.20000    16.75479   346.63935     0.32283    14.28752     5.09433     0.32209
     6.30000    17.26132   346.72350     0.32322    14.77260     5.10161     0.32249
     6.40000    17.82446   346.81116     0.32365    15.31303     5.10889     0.32292
     6.50000    18.39872   346.89742     0.32408    15.86572     5.11412     0.32335
     6.60000    19.03365   346.98710     0.32455    16.47848     5.11916     0.32382
     6.70000    19.68175   347.07523     0.32501    17.10609     5.12251     0.32429
     6.80000    20.39483   347.16660     0.32550    17.79895     5.12572     0.32479
     6.90000    87.72240   350.63788     0.33382    92.27760     9.36212     0.33382
     7.00000    87.72319   350.64106     0.33384    92.27681     9.35894     0.33384
     7.10000    87.72398   350.64423     0.33386    92.27602     9.35577     0.33386
     7.20000    87.72477   350.64741     0.33389    92.27523     9.35259     0.33389
     7.30000    87.72556   350.65058     0.33391    92.27444     9.34942     0.33391
     7.40000    87.72634   350.65375     0.33393    92.27366     9.34625     0.33393
     7.50000    87.72713   350.65693     0.33395    92.27287     9.34307     0.33395
     7.60000    87.72792   350.66010     0.33397    92.27208     9.33990     0.33397
     7.70000    87.72871   350.66327     0.33399    92.27129     9.33673     0.33399
     7.80000    87.72950   350.66643     0.33401    92.27050     9.33357     0.33401
     7.90000    87.73028   350.66960     0.33404    92.26972     9.33040     0.33404
     8.00000    87.73107   350.67277     0.33406    92.26893     9.32723     0.33406
     8.10000    87.73186   350.67593     0.33408    92.26814     9.32407     0.33408
     8.20000    87.73264   350.67910     0.33410    92.26736     9.32090     0.33410
     8.30000    87.73343   350.68226     0.33412    92.26657     9.31774     0.33412
     8.40000    87.73422   350.68542     0.33414    92.26578     9.31458     0.33414
     8.50000    87.73500   350.68858     0.33416    92.26500     9.31142     0.33416
     8.60000    87.73579   350.69175     0.33419    92.26421     9.30825     0.33419
     8.70000    87.73657   350.69490     0.33421    92.26343     9.30510     0.33421
     8.80000    87.73736   350.69806     0.33423    92.26264     9.30194     0.33423
     8.90000    87.73814   350.70122     0.33425    92.26186     9.29878     0.33425
     9.00000    87.73893   350.70438     0.33427    92.26107     9.29562     0.33427
     9.10000    87.73971   350.70753     0.33429    92.26029     9.29247     0.33429
     9.20000    87.74049   350.71069     0.33431    92.25951     9.28931     0.33431
     9.30000    87.74128   350.71384     0.33433    92.25872     9.28616     0.33433
     9.40000    87.74206   350.71699     0.33436    92.25794     9.28301     0.33436
     9.50000    87.74284   350.72014     0.33438    92.25716     9.27986     0.33438
     9.60000    87.74363   350.72329     0.33440    92.25637     9.27671     0.33440
     9.70000    87.74441   350.72644     0.33442    92.25559     9.27356     0.33442
     9.80000    87.74519   350.72959     0.33444    92.25481     9.27041     0.33444
     9.90000    87.74597   350.73274     0.33446    92.25403     9.26726     0.33446
    10.00000    87.74676   350.73588     0.33448    92.25324     9.26412     0.33448
    10.10000    87.74754   350.73903     0.33451    92.25246     9.26097     0.33451
    10.20000    87.74832   350.74217     0.33453    92.25168     9.25783     0.33453
    10.30000    87.74910   350.74531     0.33455    92.25090     9.25469     0.33455
    10.40000    87.74988   350.74846     0.33457    92.25012     9.25154     0.33457
    10.50000    87.75066   350.75160     0.33459    92.24934     9.24840     0.33459
    10.60000    87.75144   350.75474     0.33461    92.24856     9.24526     0.33461
    10.70000    87.75222   350.75788     0.33464    92.24778     9.24212     0.33464
    10.80000    87.75300   350.76101     0.33466    92.24700     9.23899     0.33466
    10.90000    87.75378   350.76415     0.33468    92.24622     9.23585     0.33468
    11.00000    87.75456   350.76729     0.33470    92.24544     9.23271     0.33470
    11.10000    87.75534   350.77042     0.33472    92.24466     9.22958     0.33472
    11.20000    87.75612   350.77355     0.33474    92.24388     9.22645     0.33474
    11.30000    87.75690   350.77669     0.33476    92.24310     9.22331     0.33476
    11.40000    87.75768   350.77982     0.33479    92.24232     9.22018     0.33479
    11.50000    87.75845   350.78295     0.33481    92.24155     9.21705     0.33481
    11.60000    87.75923   350.78608     0.33483    92.24077     9.21392     0.33483
    11.70000    87.76001   350.78921     0.33485    92.23999     9.21079     0.33485
    11.80000    87.76079   350.79234     0.33487    92.23921     9.20766     0.33487
    11.90000    87.76156   350.79546     0.33489    92.23844     9.20454     0.33489
    12.00000    87.76234   350.79859     0.33491    92.23766     9.20141     0.33491
    12.10000    87.76312   350.80171     0.33494    92.23688     9.19829     0.33494
    12.20000    87.76389   350.80484     0.33496    92.23611     9.19516     0.33496
    12.30000    87.76467   350.80796     0.33498    92.23533     9.19204     0.33498
    12.40000    87.76544   350.81108     0.33500    92.23456     9.18892     0.33500
    12.50000    87.76622   350.81420     0.33502    92.23378     9.18580     0.33502
    12.60000    87.76699   350.81732     0.33504    92.23301     9.18268     0.33504
    12.70000    87.76777   350.82044     0.33507    92.23223     9.17956     0.33507
    12.80000    87.76854   350.82356     0.33509    92.23146     9.17644     0.33509
    12.90000    87.76932   350.82667     0.33511    92.23068     9.17333     0.33511
    13.00000    87.77009   350.82979     0.33513    92.22991     9.17021     0.33513
    13.10000    87.77087   350.83290     0.33515    92.22913     9.16710     0.33515
    13.20000    87.77164   350.83602     0.33517    92.22836     9.16398     0.33517
    13.30000    87.77241   350.83913     0.33520    92.22759     9.16087     0.33520
    13.40000    87.77319   350.84224     0.33522    92.22681     9.15776     0.33522
    13.50000    87.77396   350.84535     0.33524    92.22604     9.15465     0.33524
    13.60000    87.77473   350.84846     0.33526    92.22527     9.15154     0.33526
    13.70000    87.77551   350.85157     0.33528    92.22449     9.14843     0.33528
    13.80000    87.77628   350.85468     0.33530    92.22372     9.14532     0.33530
    13.90000    87.77705   350.85778     0.33532    92.22295     9.14222     0.33532
    14.00000    87.77782   350.86089     0.33535    92.22218     9.13911     0.33535
    14.10000    87.77859   350.86399     0.33537    92.22141     9.13601     0.33537
    14.20000    87.77936   350.86710     0.33539    92.22064     9.13290     0.33539
    14.30000    87.78013   350.87020     0.33541    92.21987     9.12980     0.33541
    14.40000    87.78091   350.87330     0.33543    92.21909     9.12670     0.33543
    14.50000    87.78168   350.87640     0.33545    92.21832     9.12360     0.33545
    14.60000    87.78245   350.87950     0.33548    92.21755     9.12050     0.33548
    14.70000    87.78322   350.88260     0.33550    92.21678     9.11740     0.33550
    14.80000    87.78399   350.88570     0.33552    92.21601     9.11430     0.33552
    14.90000    87.78475   350.88879     0.33554    92.21525     9.11121     0.33554
    15.00000    87.78552   350.89189     0.33556    92.21448     9.10811     0.33556
    15.10000    87.78629   350.89498     0.33558    92.21371     9.10502     0.33558
    15.20000    87.78706   350.89808     0.33561    92.21294     9.10192     0.33561
    15.30000    87.78783   350.90117     0.33563    92.21217     9.09883     0.33563
    15.40000    87.78860   350.90426     0.33565    92.21140     9.09574     0.33565
    15.50000    87.78937   350.90735     0.33567    92.21063     9.09265     0.33567
    15.60000    87.79013   350.91044     0.33569    92.20987     9.08956     0.33569
    15.70000    87.79090   350.91353     0.33571    92.20910     9.08647     0.33571
    15.80000    87.79167   350.91662     0.33574    92.20833     9.08338     0.33574
    15.90000    87.79243   350.91971     0.33576    92.20757     9.08029     0.33576
    16.00000    87.79320   350.92279     0.33578    92.20680     9.07721     0.33578
    16.10000    87.79397   350.92588     0.33580    92.20603     9.07412     0.33580
    16.20000    87.79473   350.92896     0.33582    92.20527     9.07104     0.33582
    16.30000    87.79550   350.93204     0.33584    92.20450     9.06796     0.33584
    16.40000    87.79626   350.93512     0.33587    92.20374     9.06488     0.33587
    16.50000    87.79703   350.93820     0.33589    92.20297     9.06180     0.33589
    16.60000    87.79780   350.94128     0.33591    92.20220     9.05872     0.33591
    16.70000    87.79856   350.94436     0.33593    92.20144     9.05564     0.33593
    16.80000    87.79932   350.94744     0.33595    92.20068     9.05256     0.33595
    16.90000    87.80009   350.95052     0.33598    92.19991     9.04948     0.33598
    17.00000    87.80085   350.95359     0.33600    92.19915     9.04641     0.33600
    17.10000    87.80162   350.95667     0.33602    92.19838     9.04333     0.33602
    17.20000    87.80238   350.95974     0.33604    92.19762     9.04026     0.33604
    17.30000    87.80314   350.96281     0.33606    92.19686     9.03719     0.33606
    17.40000    87.80391   350.96588     0.33608    92.19609     9.03412     0.33608
    17.50000    87.80467   350.96896     0.33611    92.19533     9.03104     0.33611
    17.60000    87.80543   350.97202     0.33613    92.19457     9.02798     0.33613
    17.70000    87.80619   350.97509     0.33615    92.19381     9.02491     0.33615
    17.80000    87.80696   350.97816     0.33617    92.19304     9.02184     0.33617
    17.90000    87.80772   350.98123     0.33619    92.19228     9.01877     0.33619
    18.00000    87.80848   350.98429     0.33621    92.19152     9.01571     0.33621
    18.10000    87.80924   350.98736     0.33624    92.19076     9.01264     0.33624
    18.20000    87.81000   350.99042     0.33626    92.19000     9.00958     0.33626
    18.30000    87.81076   350.99349     0.33628    92.18924     9.00651     0.33628
    18.40000    87.81152   350.99655     0.33630    92.18848     9.00345     0.33630
    18.50000    87.81228   350.99961     0.33632    92.18772     9.00039     0.33632
    18.60000    87.81304   351.00267     0.33635    92.18696     8.99733     0.33635
    18.70000    87.81380   351.00573     0.33637    92.18620     8.99427     0.33637
    18.80000    87.81456   351.00878     0.33639    92.18544     8.99122     0.33639
    18.90000    87.81532   351.01184     0.33641    92.18468     8.98816     0.33641
    19.00000    87.81608   351.01490     0.33643    92.18392     8.98510     0.33643
    19.10000    87.81684   351.01795     0.33645    92.18316     8.98205     0.33645
    19.20000    87.81760   351.02101     0.33648    92.18240     8.97899     0.33648
    19.30000    87.81836   351.02406     0.33650    92.18164     8.97594     0.33650
    19.40000    87.81912   351.02711     0.33652    92.18088     8.97289     0.33652
    19.50000    87.81987   351.03016     0.33654    92.18013     8.96984     0.33654
    19.60000    87.82063   351.03321     0.33656    92.17937     8.96679     0.33656
    19.70000    87.82139   351.03626     0.33659    92.17861     8.96374     0.33659
    19.80000    87.82215   351.03931     0.33661    92.17785     8.96069     0.33661
    19.90000    87.82290   351.04236     0.33663    92.17710     8.95764     0.33663
    20.00000    87.82366   351.04540     0.33665    92.17634     8.95460     0.33665
    20.10000    87.82442   351.04845     0.33667    92.17558     8.95155     0.33667
    20.20000    87.82517   351.05149     0.33670    92.17483     8.94851     0.33670
    20.30000    87.82593   351.05454     0.33672    92.17407     8.94546     0.33672
    20.40000    87.82668   351.05758     0.33674    92.17332     8.94242     0.33674
    20.50000    87.82744   351.06062     0.33676    92.17256     8.93938     0.33676
    20.60000    87.82820   351.06366     0.33678    92.17180     8.93634     0.33678
    20.70000    87.82895   351.06670     0.33680    92.17105     8.93330     0.33680
    20.80000    87.82970   351.06974     0.33683    92.17030     8.93026     0.33683
    20.90000    87.83046   351.07278     0.33685    92.16954     8.92722     0.33685
    21.00000    87.83121   351.07581     0.33687    92.16879     8.92419     0.33687
    21.10000    87.83197   351.07885     0.33689    92.16803     8.92115     0.33689
    21.20000    87.83272   351.08188     0.33691    92.16728     8.91812     0.33691
    21.30000    87.83347   351.08492     0.33694    92.16653     8.91508     0.33694
    21.40000    87.83423   351.08795     0.33696    92.16577     8.91205     0.33696
    21.50000    87.83498   351.09098     0.33698    92.16502     8.90902     0.33698
    21.60000    87.83573   351.09401     0.33700    92.16427     8.90599     0.33700
    21.70000    87.83649   351.09704     0.33702    92.16351     8.90296     0.33702
    21.80000    87.83724   351.10007     0.33705    92.16276     8.89993     0.33705
    21.90000    87.83799   351.10310     0.33707    92.16201     8.89690     0.33707
    22.00000    87.83874   351.10612     0.33709    92.16126     8.89388     0.33709
    22.10000    87.83949   351.10915     0.33711    92.16051     8.89085     0.33711
    22.20000    87.84024   351.11217     0.33713    92.15976     8.88783     0.33713
    22.30000    87.84100   351.11520     0.33716    92.15900     8.88480     0.33716
    22.40000    87.84175   351.11822     0.33718    92.15825     8.88178     0.33718
    22.50000    87.84250   351.12124     0.33720    92.15750     8.87876     0.33720
    22.60000    87.84325   351.12426     0.33722    92.15675     8.87574     0.33722
    22.70000    87.84400   351.12728     0.33724    92.15600     8.87272     0.33724
    22.80000    87.84475   351.13030     0.33727    92.15525     8.86970     0.33727
    22.90000    87.84550   351.13332     0.33729    92.15450     8.86668     0.33729
    23.00000    87.84625   351.13634     0.33731    92.15375     8.86366     0.33731
    23.10000    87.84700   351.13935     0.33733    92.15300     8.86065     0.33733
    23.20000    87.84774   351.14237     0.33735    92.15226     8.85763     0.33735
    23.30000    87.84849   351.14538     0.33738    92.15151     8.85462     0.33738
