 # applied field (T), theta (degree), phi (degree), abs for RE 1-2
     0.00000    90.00000    45.41863     4.57866    90.00000    45.41863     4.57866
     0.10000    89.87818    45.41863     4.57866    89.87818    45.41863     4.57866
     0.20000    89.75635    44.58137     4.57865    89.75635    44.58137     4.57865
     0.30000    89.65846    45.41863     4.57864    89.65846    45.41863     4.57864
     0.40000    89.53664    45.41863     4.57863    89.53664    45.41863     4.57863
     0.50000    89.41482    44.58137     4.57861    89.41482    44.58137     4.57861
     0.60000    89.29299    45.41863     4.57858    89.29299    45.41863     4.57858
     0.70000    89.19510    45.41863     4.57856    89.19510    45.41863     4.57856
     0.80000    89.07328    44.58136     4.57852    89.07328    44.58136     4.57852
     0.90000    88.95145    44.58136     4.57848    88.95145    44.58136     4.57848
     1.00000    88.82963    45.41864     4.57844    88.82963    45.41864     4.57844
     1.10000    88.70780    44.58136     4.57839    88.70780    44.58136     4.57839
     1.20000    88.60991    44.58136     4.57834    88.60991    44.58136     4.57834
     1.30000    88.48809    44.58135     4.57828    88.48809    44.58135     4.57828
     1.40000    88.36626    45.41865     4.57822    88.36626    45.41865     4.57822
     1.50000    88.24443    44.58135     4.57815    88.24443    44.58135     4.57815
     1.60000    88.14654    44.58135     4.57809    88.14654    44.58135     4.57809
     1.70000    88.02471    44.58134     4.57802    88.02471    44.58134     4.57802
     1.80000    87.90289    44.58134     4.57793    87.90289    44.58134     4.57793
     1.90000    87.80499    45.41866     4.57786    87.80499    45.41866     4.57786
     2.00000    87.68316    45.41867     4.57777    87.68316    45.41867     4.57777
     2.10000    87.56134    45.41867     4.57768    87.56134    45.41867     4.57768
     2.20000    87.43951    44.58132     4.57757    87.43951    44.58132     4.57757
     2.30000    87.34161    45.41868     4.57749    87.34161    45.41868     4.57749
     2.40000    87.21978    44.58132     4.57738    87.21978    44.58132     4.57738
     2.50000    87.09795    45.00000     4.57726    87.09795    45.00000     4.57726
     2.60000    87.00006    45.00000     4.57717    87.00006    45.00000     4.57717
     2.70000    86.87822    45.00000     4.57704    86.87822    45.00000     4.57704
     2.80000    86.75639    45.00000     4.57691    86.75639    45.00000     4.57691
     2.90000    86.65849    45.00000     4.57681    86.65849    45.00000     4.57681
     3.00000    86.53666    45.00000     4.57667    86.53666    45.00000     4.57667
     3.10000    86.41482    45.00000     4.57652    86.41482    45.00000     4.57652
     3.20000    86.31692    45.00000     4.57640    86.31692    45.00000     4.57640
     3.30000    86.19508    45.00000     4.57625    86.19508    45.00000     4.57625
     3.40000    86.09717    45.00000     4.57612    86.09717    45.00000     4.57612
     3.50000    85.97533    45.00000     4.57596    85.97533    45.00000     4.57596
     3.60000    85.85349    45.00000     4.57579    85.85349    45.00000     4.57579
     3.70000    85.75558    45.00000     4.57566    85.75558    45.00000     4.57566
     3.80000    85.63374    45.00000     4.57548    85.63374    45.00000     4.57548
     3.90000    85.53582    44.57310     4.57533    85.53582    44.57310     4.57533
     4.00000    85.41397    45.42691     4.57514    85.41397    45.42691     4.57514
     4.10000    85.31605    44.57308     4.57499    85.31605    44.57308     4.57499
     4.20000    85.19420    45.42693     4.57480    85.19420    45.42693     4.57480
     4.30000    85.09628    44.57307     4.57463    85.09628    44.57307     4.57463
     4.40000    84.97443    44.57306     4.57443    84.97443    44.57306     4.57443
     4.50000    84.87651    45.42695     4.57426    84.87651    45.42695     4.57426
     4.60000    84.75465    44.57304     4.57405    84.75465    44.57304     4.57405
     4.70000    84.65673    44.57303     4.57387    84.65673    44.57303     4.57387
     4.80000    84.53486    44.57303     4.57365    84.53486    44.57303     4.57365
     4.90000    84.41301    45.00000     4.57342    84.41301    45.00000     4.57342
     5.00000    84.33902    45.00000     4.57328    84.33902    45.00000     4.57328
     5.10000    84.21715    45.00000     4.57304    84.21715    45.00000     4.57304
     5.20000    84.11921    45.00000     4.57284    84.11921    45.00000     4.57284
     5.30000    83.99734    45.00000     4.57260    83.99734    45.00000     4.57260
     5.40000    83.89940    45.00000     4.57239    83.89940    45.00000     4.57239
     5.50000    83.80146    45.00000     4.57219    83.80146    45.00000     4.57219
     5.60000    83.67957    45.00000     4.57193    83.67957    45.00000     4.57193
     5.70000    83.58162    45.00000     4.57171    83.58162    45.00000     4.57171
     5.80000    83.48367    45.00000     4.57149    83.48367    45.00000     4.57149
     5.90000    83.36176    45.43553     4.57121    83.36176    45.43553     4.57121
     6.00000    83.26381    44.56446     4.57099    83.26381    44.56446     4.57099
     6.10000    83.16585    44.56445     4.57076    83.16585    44.56445     4.57076
     6.20000    83.06789    44.56444     4.57053    83.06789    44.56444     4.57053
     6.30000    82.94597    45.43558     4.57023    82.94597    45.43558     4.57023
     6.40000    82.84801    44.56441     4.56999    82.84801    44.56441     4.56999
     6.50000    82.75003    45.43560     4.56975    82.75003    45.43560     4.56975
     6.60000    82.62813    45.00000     4.56944    82.62813    45.00000     4.56944
     6.70000    82.55410    45.00000     4.56925    82.55410    45.00000     4.56925
     6.80000    82.45611    45.00000     4.56899    82.45611    45.00000     4.56899
     6.90000    82.33417    45.00000     4.56867    82.33417    45.00000     4.56867
     7.00000    82.23618    45.00000     4.56840    82.23618    45.00000     4.56840
     7.10000    82.13819    45.00000     4.56814    82.13819    45.00000     4.56814
     7.20000    82.04019    45.00000     4.56786    82.04019    45.00000     4.56786
     7.30000    81.94218    45.00000     4.56759    81.94218    45.00000     4.56759
     7.40000    81.84415    44.55550     4.56731    81.84415    44.55550     4.56731
     7.50000    81.74614    45.44451     4.56702    81.74614    45.44451     4.56702
     7.60000    81.64812    44.55548     4.56674    81.64812    44.55548     4.56674
     7.70000    81.55010    45.44454     4.56645    81.55010    45.44454     4.56645
     7.80000    81.45207    45.44455     4.56615    81.45207    45.44455     4.56615
     7.90000    81.35403    44.55544     4.56585    81.35403    44.55544     4.56585
     8.00000    81.25599    44.55543     4.56555    81.25599    44.55543     4.56555
     8.10000    81.15797    45.00000     4.56525    81.15797    45.00000     4.56525
     8.20000    81.05992    45.00000     4.56494    81.05992    45.00000     4.56494
     8.30000    80.96186    45.00000     4.56462    80.96186    45.00000     4.56462
     8.40000    80.88777    45.00000     4.56439    80.88777    45.00000     4.56439
     8.50000    80.78970    45.00000     4.56406    80.78970    45.00000     4.56406
     8.60000    80.69162    45.00000     4.56374    80.69162    45.00000     4.56374
     8.70000    80.59354    45.00000     4.56341    80.59354    45.00000     4.56341
     8.80000    80.49543    44.54615     4.56308    80.49543    44.54615     4.56308
     8.90000    80.39733    44.54614     4.56274    80.39733    44.54614     4.56274
     9.00000    80.32321    45.45387     4.56248    80.32321    45.45387     4.56248
     9.10000    80.22510    44.54611     4.56214    80.22510    44.54611     4.56214
     9.20000    80.12698    44.54610     4.56179    80.12698    44.54610     4.56179
     9.30000    80.02886    45.45391     4.56144    80.02886    45.45391     4.56144
     9.40000    79.95474    45.00000     4.56117    79.95474    45.00000     4.56117
     9.50000    79.85660    45.00000     4.56081    79.85660    45.00000     4.56081
     9.60000    79.75845    45.00000     4.56045    79.75845    45.00000     4.56045
     9.70000    79.68429    45.00000     4.56017    79.68429    45.00000     4.56017
     9.80000    79.58612    45.00000     4.55980    79.58612    45.00000     4.55980
     9.90000    79.48795    45.00000     4.55942    79.48795    45.00000     4.55942
    10.00000    79.41377    45.00000     4.55914    79.41377    45.00000     4.55914
    10.10000    79.31555    45.46358     4.55875    79.31555    45.46358     4.55875
    10.20000    79.21735    44.53640     4.55837    79.21735    44.53640     4.55837
    10.30000    79.14315    45.46361     4.55807    79.14315    45.46361     4.55807
    10.40000    79.04493    44.53637     4.55768    79.04493    44.53637     4.55768
    10.50000    78.97071    44.53636     4.55738    78.97071    44.53636     4.55738
    10.60000    78.87248    44.53634     4.55697    78.87248    44.53634     4.55697
    10.70000    78.79827    45.00000     4.55667    78.79827    45.00000     4.55667
    10.80000    78.70002    45.00000     4.55626    78.70002    45.00000     4.55626
    10.90000    78.62577    45.00000     4.55595    78.62577    45.00000     4.55595
    11.00000    78.52749    45.00000     4.55553    78.52749    45.00000     4.55553
    11.10000    78.45323    45.00000     4.55521    78.45323    45.00000     4.55521
    11.20000    78.35493    45.00000     4.55478    78.35493    45.00000     4.55478
    11.30000    78.28062    44.52626     4.55446    78.28062    44.52626     4.55446
    11.40000    78.20633    45.47375     4.55413    78.20633    45.47375     4.55413
    11.50000    78.10800    44.52623     4.55369    78.10800    44.52623     4.55369
    11.60000    78.03369    45.47378     4.55336    78.03369    45.47378     4.55336
    11.70000    77.95938    44.52621     4.55302    77.95938    44.52621     4.55302
    11.80000    77.86101    45.47381     4.55257    77.86101    45.47381     4.55257
    11.90000    77.78671    45.00000     4.55223    77.78671    45.00000     4.55223
    12.00000    77.71236    45.00000     4.55189    77.71236    45.00000     4.55189
    12.10000    77.61396    45.00000     4.55143    77.61396    45.00000     4.55143
    12.20000    77.53960    45.00000     4.55108    77.53960    45.00000     4.55108
    12.30000    77.46523    45.00000     4.55072    77.46523    45.00000     4.55072
    12.40000    77.39085    45.00000     4.55037    77.39085    45.00000     4.55037
    12.50000    77.29236    44.51566     4.54989    77.29236    44.51566     4.54989
    12.60000    77.21796    44.51565     4.54952    77.21796    44.51565     4.54952
    12.70000    77.14355    44.51563     4.54916    77.14355    44.51563     4.54916
    12.80000    77.06913    45.48438     4.54879    77.06913    45.48438     4.54879
    12.90000    76.99470    44.51560     4.54842    76.99470    44.51560     4.54842
    13.00000    76.92025    45.48442     4.54805    76.92025    45.48442     4.54805
    13.10000    76.82175    45.00000     4.54755    76.82175    45.00000     4.54755
    13.20000    76.74728    45.00000     4.54717    76.74728    45.00000     4.54717
    13.30000    76.67281    45.00000     4.54678    76.67281    45.00000     4.54678
    13.40000    76.59832    45.00000     4.54640    76.59832    45.00000     4.54640
    13.50000    76.52382    45.00000     4.54601    76.52382    45.00000     4.54601
    13.60000    76.44931    45.00000     4.54561    76.44931    45.00000     4.54561
    13.70000    76.37475    45.49542     4.54522    76.37475    45.49542     4.54522
    13.80000    76.30022    44.50457     4.54482    76.30022    44.50457     4.54482
    13.90000    76.22567    44.50455     4.54442    76.22567    44.50455     4.54442
    14.00000    76.15111    44.50453     4.54401    76.15111    44.50453     4.54401
    14.10000    76.07654    45.49548     4.54360    76.07654    45.49548     4.54360
    14.20000    76.00196    45.49550     4.54319    76.00196    45.49550     4.54319
    14.30000    75.92740    45.00000     4.54278    75.92740    45.00000     4.54278
    14.40000    75.85279    45.00000     4.54236    75.85279    45.00000     4.54236
    14.50000    75.77817    45.00000     4.54194    75.77817    45.00000     4.54194
    14.60000    75.70353    45.00000     4.54152    75.70353    45.00000     4.54152
    14.70000    75.62888    45.00000     4.54110    75.62888    45.00000     4.54110
    14.80000    75.57837    45.00000     4.54081    75.57837    45.00000     4.54081
    14.90000    75.50366    44.49299     4.54037    75.50366    44.49299     4.54037
    15.00000    75.42897    44.49297     4.53994    75.42897    44.49297     4.53994
    15.10000    75.35427    45.50704     4.53950    75.35427    45.50704     4.53950
    15.20000    75.27955    44.49294     4.53906    75.27955    44.49294     4.53906
    15.30000    75.20482    45.50708     4.53862    75.20482    45.50708     4.53862
    15.40000    75.15425    45.50709     4.53831    75.15425    45.50709     4.53831
    15.50000    75.07953    45.00000     4.53787    75.07953    45.00000     4.53787
    15.60000    75.00476    45.00000     4.53741    75.00476    45.00000     4.53741
    15.70000    74.92997    45.00000     4.53696    74.92997    45.00000     4.53696
    15.80000    74.85517    45.00000     4.53650    74.85517    45.00000     4.53650
    15.90000    74.80454    45.00000     4.53619    74.80454    45.00000     4.53619
    16.00000    74.72971    45.00000     4.53572    74.72971    45.00000     4.53572
    16.10000    74.65482    44.48085     4.53525    74.65482    44.48085     4.53525
    16.20000    74.60417    45.51916     4.53493    74.60417    45.51916     4.53493
    16.30000    74.52929    44.48082     4.53446    74.52929    44.48082     4.53446
    16.40000    74.45439    44.48080     4.53398    74.45439    44.48080     4.53398
    16.50000    74.40371    44.48078     4.53366    74.40371    44.48078     4.53366
    16.60000    74.32878    45.51923     4.53317    74.32878    45.51923     4.53317
    16.70000    74.25388    45.00000     4.53269    74.25388    45.00000     4.53269
    16.80000    74.20316    45.00000     4.53236    74.20316    45.00000     4.53236
    16.90000    74.12819    45.00000     4.53187    74.12819    45.00000     4.53187
    17.00000    74.07744    45.00000     4.53153    74.07744    45.00000     4.53153
    17.10000    74.00244    45.00000     4.53103    74.00244    45.00000     4.53103
    17.20000    73.92741    45.00000     4.53053    73.92741    45.00000     4.53053
    17.30000    73.90090    45.00000     4.53036    73.90090    45.00000     4.53036
    17.40000    73.80153    45.53189     4.52968    73.80153    45.53189     4.52968
    17.50000    73.75073    45.53190     4.52933    73.75073    45.53190     4.52933
    17.60000    73.67563    44.46808     4.52882    73.67563    44.46808     4.52882
    17.70000    73.62481    44.46806     4.52847    73.62481    44.46806     4.52847
    17.80000    73.54968    45.53196     4.52795    73.54968    45.53196     4.52795
    17.90000    73.49887    45.00000     4.52760    73.49887    45.00000     4.52760
    18.00000    73.42371    45.00000     4.52707    73.42371    45.00000     4.52707
    18.10000    73.37283    45.00000     4.52671    73.37283    45.00000     4.52671
    18.20000    73.29763    45.00000     4.52618    73.29763    45.00000     4.52618
    18.30000    73.24673    45.00000     4.52582    73.24673    45.00000     4.52582
    18.40000    73.19582    45.00000     4.52546    73.19582    45.00000     4.52546
    18.50000    73.12056    45.00000     4.52491    73.12056    45.00000     4.52491
    18.60000    73.06958    45.54523     4.52454    73.06958    45.54523     4.52454
    18.70000    72.99428    44.45474     4.52399    72.99428    44.45474     4.52399
    18.80000    72.94332    45.54527     4.52362    72.94332    45.54527     4.52362
    18.90000    72.89234    44.45471     4.52325    72.89234    44.45471     4.52325
    19.00000    72.81699    44.45469     4.52269    72.81699    44.45469     4.52269
    19.10000    72.76598    45.54532     4.52231    72.76598    45.54532     4.52231
    19.20000    72.71502    45.00000     4.52193    72.71502    45.00000     4.52193
    19.30000    72.63960    45.00000     4.52136    72.63960    45.00000     4.52136
    19.40000    72.58856    45.00000     4.52098    72.58856    45.00000     4.52098
    19.50000    72.53750    45.00000     4.52059    72.53750    45.00000     4.52059
    19.60000    72.46202    45.00000     4.52001    72.46202    45.00000     4.52001
    19.70000    72.41094    45.00000     4.51962    72.41094    45.00000     4.51962
    19.80000    72.38426    45.00000     4.51942    72.38426    45.00000     4.51942
    19.90000    72.30868    45.55927     4.51883    72.30868    45.55927     4.51883
    20.00000    72.23312    45.55929     4.51824    72.23312    45.55929     4.51824
    20.10000    72.18197    44.44069     4.51784    72.18197    44.44069     4.51784
    20.20000    72.13081    44.44067     4.51744    72.13081    44.44067     4.51744
    20.30000    72.07964    44.44066     4.51703    72.07964    44.44066     4.51703
    20.40000    72.00400    45.55936     4.51643    72.00400    45.55936     4.51643
    20.50000    71.95284    45.00000     4.51602    71.95284    45.00000     4.51602
    20.60000    71.90163    45.00000     4.51561    71.90163    45.00000     4.51561
    20.70000    71.85040    45.00000     4.51520    71.85040    45.00000     4.51520
    20.80000    71.79915    45.00000     4.51479    71.79915    45.00000     4.51479
    20.90000    71.74789    45.00000     4.51437    71.74789    45.00000     4.51437
    21.00000    71.67211    45.00000     4.51375    71.67211    45.00000     4.51375
    21.10000    71.64533    45.00000     4.51353    71.64533    45.00000     4.51353
    21.20000    71.56946    45.57404     4.51290    71.56946    45.57404     4.51290
    21.30000    71.51813    44.42595     4.51247    71.51813    44.42595     4.51247
    21.40000    71.46679    44.42593     4.51204    71.46679    44.42593     4.51204
    21.50000    71.41544    44.42591     4.51161    71.41544    44.42591     4.51161
    21.60000    71.36407    44.42590     4.51118    71.36407    44.42590     4.51118
    21.70000    71.31269    44.42588     4.51075    71.31269    44.42588     4.51075
    21.80000    71.26134    45.00000     4.51032    71.26134    45.00000     4.51032
    21.90000    71.20992    45.00000     4.50988    71.20992    45.00000     4.50988
    22.00000    71.13391    45.00000     4.50922    71.13391    45.00000     4.50922
    22.10000    71.08246    45.00000     4.50878    71.08246    45.00000     4.50878
    22.20000    71.03098    45.00000     4.50833    71.03098    45.00000     4.50833
    22.30000    70.97950    45.00000     4.50788    70.97950    45.00000     4.50788
    22.40000    70.92799    45.00000     4.50743    70.92799    45.00000     4.50743
    22.50000    70.87642    45.58958     4.50698    70.87642    45.58958     4.50698
    22.60000    70.82488    45.58960     4.50652    70.82488    45.58960     4.50652
    22.70000    70.77332    44.41038     4.50606    70.77332    44.41038     4.50606
    22.80000    70.72175    44.41036     4.50560    70.72175    44.41036     4.50560
    22.90000    70.67016    44.41034     4.50514    70.67016    44.41034     4.50514
    23.00000    70.61855    44.41033     4.50468    70.61855    44.41033     4.50468
    23.10000    70.56698    45.00000     4.50422    70.56698    45.00000     4.50422
    23.20000    70.54002    45.00000     4.50398    70.54002    45.00000     4.50398
    23.30000    70.48837    45.00000     4.50351    70.48837    45.00000     4.50351
