 # applied field (T), theta (degree), phi (degree), abs [muB/unitcell], abs [T]
       0.00000000       0.00000000       0.00000000      43.29967268       1.45739487
       0.10000000       0.16942951      45.00000000      43.29967204       1.45739485
       0.20000000       0.39510201      45.00000000      43.29966874       1.45739474
       0.30000000       0.56453174      45.00000000      43.29966492       1.45739461
       0.40000000       0.73396167      45.00000000      43.29965982       1.45739444
       0.50000000       0.95963506      45.00000000      43.29964993       1.45739411
       0.60000000       1.12906569      45.00000000      43.29964166       1.45739383
       0.70000000       1.29849671      45.00000000      43.29963211       1.45739351
       0.80000000       1.52417187      45.00000000      43.29961565       1.45739296
       0.90000000       1.69360405      45.00000000      43.29960294       1.45739253
       1.00000000       1.86303681      45.00000000      43.29958896       1.45739206
       1.10000000       2.08871464      45.00000000      43.29956594       1.45739128
       1.20000000       2.25814902      45.00000000      43.29954881       1.45739071
       1.30000000       2.42758419      45.00000000      43.29953043       1.45739009
       1.40000000       2.65326556      45.00000000      43.29950090       1.45738909
       1.50000000       2.82270281      45.00000000      43.29947939       1.45738837
       1.60000000       2.99214104      45.00000000      43.29945663       1.45738760
       1.70000000       3.21782685      45.00000000      43.29942064       1.45738639
       1.80000000       3.38726762      45.00000000      43.29939479       1.45738552
       1.90000000       3.61295707      45.00000000      43.29935423       1.45738416
       2.00000000       3.78240070      45.00000000      43.29932530       1.45738318
       2.10000000       3.95184566      45.00000000      43.29929515       1.45738217
       2.20000000       4.17754105      45.00000000      43.29924823       1.45738059
       2.30000000       4.34698933      45.00000000      43.29921504       1.45737947
       2.40000000       4.51643912      45.00000000      43.29918064       1.45737831
       2.50000000       4.74214134      45.00000000      43.29912745       1.45737652
       2.60000000       4.91159492      45.00000000      43.29909006       1.45737526
       2.70000000       5.08105021      45.00000000      43.29905148       1.45737397
       2.80000000       5.30676013      45.00000000      43.29899210       1.45737197
       2.90000000       5.47621967      45.00000000      43.29895057       1.45737057
       3.00000000       5.64568112      45.00000000      43.29890788       1.45736913
       3.10000000       5.87139964      45.00000000      43.29884241       1.45736693
       3.20000000       6.04086579      45.00000000      43.29879683       1.45736539
       3.30000000       6.21033405      45.00000000      43.29875010       1.45736382
       3.40000000       6.43606204      45.00000000      43.29867864       1.45736142
       3.50000000       6.60553546      45.00000000      43.29862909       1.45735975
       3.60000000       6.77501119      45.00000000      43.29857841       1.45735804
       3.70000000       7.00074954      45.00000000      43.29850109       1.45735544
       3.80000000       7.17023089      45.00000000      43.29844765       1.45735364
       3.90000000       7.33971473      45.00000000      43.29839312       1.45735181
       4.00000000       7.56546432      45.00000000      43.29831007       1.45734901
       4.10000000       7.73495425      45.00000000      43.29825284       1.45734709
       4.20000000       7.90444686      45.00000000      43.29819455       1.45734512
       4.30000000       8.13020857      45.00000000      43.29810591       1.45734214
       4.40000000       8.29970773      45.00000000      43.29804500       1.45734009
       4.50000000       8.46920977      45.00000000      43.29798307       1.45733801
       4.60000000       8.69498448      45.00000000      43.29788898       1.45733484
       4.70000000       8.86449352      45.00000000      43.29782451       1.45733267
       4.80000000       9.03400564      45.00000000      43.29775904       1.45733047
       4.90000000       9.25979423      45.00000000      43.29765967       1.45732712
       5.00000000       9.42931380      45.00000000      43.29759175       1.45732483
       5.10000000       9.59883665      45.00000000      43.29752288       1.45732252
       5.20000000       9.82464000      45.00000000      43.29741840       1.45731900
       5.30000000       9.99417075      45.00000000      43.29734716       1.45731660
       5.40000000      10.16370498      45.00000000      43.29727501       1.45731417
       5.50000000      10.33324273      45.00000000      43.29720197       1.45731171
       5.60000000      10.55906654      45.00000000      43.29709118       1.45730799
       5.70000000      10.72861279      45.00000000      43.29701589       1.45730545
       5.80000000      10.89816277      45.00000000      43.29693974       1.45730289
       5.90000000      11.12400334      45.00000000      43.29682426       1.45729900
       6.00000000      11.29356227      45.00000000      43.29674598       1.45729637
       6.10000000      11.46312511      45.00000000      43.29666688       1.45729370
       6.20000000      11.68898332      45.00000000      43.29654692       1.45728967
       6.30000000      11.85855557      45.00000000      43.29646579       1.45728694
       6.40000000      12.02813192      45.00000000      43.29638390       1.45728418
       6.50000000      12.25400864      45.00000000      43.29625966       1.45728000
       6.60000000      12.42359486      45.00000000      43.29617584       1.45727718
       6.70000000      12.59318537      45.00000000      43.29609131       1.45727433
       6.80000000      12.81908146      45.00000000      43.29596302       1.45727001
       6.90000000      12.98868229      45.00000000      43.29587668       1.45726711
       7.00000000      13.15828760      45.00000000      43.29578968       1.45726418
       7.10000000      13.38420393      45.00000000      43.29565755       1.45725973
       7.20000000      13.55382001      45.00000000      43.29556887       1.45725675
       7.30000000      13.72344077      45.00000000      43.29547957       1.45725374
       7.40000000      13.89306627      45.00000000      43.29538966       1.45725072
       7.50000000      14.11901018      45.00000000      43.29525300       1.45724612
       7.60000000      14.28864702      45.00000000      43.29516158       1.45724304
       7.70000000      14.45828880      45.00000000      43.29506961       1.45723994
       7.80000000      14.68425493      45.00000000      43.29492967       1.45723523
       7.90000000      14.85390850      45.00000000      43.29483632       1.45723209
       8.00000000      15.02356719      45.00000000      43.29474248       1.45722893
       8.10000000      15.24955640      45.00000000      43.29459953       1.45722412
       8.20000000      15.41922734      45.00000000      43.29450443       1.45722092
       8.30000000      15.58890358      45.00000000      43.29440891       1.45721771
       8.40000000      15.75858519      45.00000000      43.29431297       1.45721448
       8.50000000      15.98460567      45.00000000      43.29416658       1.45720955
       8.60000000      16.15430010      45.00000000      43.29406957       1.45720628
       8.70000000      16.32400009      45.00000000      43.29397221       1.45720301
       8.80000000      16.55004561      45.00000000      43.29382342       1.45719800
       8.90000000      16.71975887      45.00000000      43.29372514       1.45719469
       9.00000000      16.88947786      45.00000000      43.29362657       1.45719137
       9.10000000      17.11554930      45.00000000      43.29347567       1.45718629
       9.20000000      17.28528200      45.00000000      43.29337632       1.45718295
       9.30000000      17.45502064      45.00000000      43.29327674       1.45717960
       9.40000000      17.62476527      45.00000000      43.29317696       1.45717624
       9.50000000      17.85087163      45.00000000      43.29302383       1.45717109
       9.60000000      18.02063053      45.00000000      43.29292346       1.45716771
       9.70000000      18.19039562      45.00000000      43.29282296       1.45716432
       9.80000000      18.36016694      45.00000000      43.29272234       1.45716094
       9.90000000      18.58630964      45.00000000      43.29256748       1.45715573
      10.00000000      18.75609582      45.00000000      43.29246648       1.45715233
      10.10000000      18.92588841      45.00000000      43.29236543       1.45714892
      10.20000000      19.15206007      45.00000000      43.29220953       1.45714368
      10.30000000      19.32186795      45.00000000      43.29210827       1.45714027
      10.40000000      19.49168245      45.00000000      43.29200702       1.45713686
      10.50000000      19.66150360      45.00000000      43.29190581       1.45713345
      10.60000000      19.88771412      45.00000000      43.29174912       1.45712818
      10.70000000      20.05755114      45.00000000      43.29164791       1.45712477
      10.80000000      20.22739500      45.00000000      43.29154681       1.45712137
      10.90000000      20.39724576      45.00000000      43.29144584       1.45711797
      11.00000000      20.62349656      45.00000000      43.29128889       1.45711269
      11.10000000      20.79336375      45.00000000      43.29118814       1.45710930
      11.20000000      20.96323803      45.00000000      43.29108759       1.45710591
      11.30000000      21.18952081      45.00000000      43.29093077       1.45710064
      11.40000000      21.35941194      45.00000000      43.29083062       1.45709727
      11.50000000      21.52931034      45.00000000      43.29073074       1.45709390
      11.60000000      21.69921608      45.00000000      43.29063116       1.45709055
      11.70000000      21.92554163      45.00000000      43.29047508       1.45708530
      11.80000000      22.09546478      45.00000000      43.29037613       1.45708197
      11.90000000      22.26539544      45.00000000      43.29027754       1.45707865
      12.00000000      22.43533367      45.00000000      43.29017936       1.45707535
      12.10000000      22.66170339      45.00000000      43.29002459       1.45707014
      12.20000000      22.83165960      45.00000000      43.28992726       1.45706686
      12.30000000      23.00162355      45.00000000      43.28983040       1.45706360
      12.40000000      23.17159530      45.00000000      43.28973404       1.45706036
      12.50000000      23.34157491      45.00000000      43.28963819       1.45705713
      12.60000000      23.56800088      45.00000000      43.28948591       1.45705201
      12.70000000      23.73799915      45.00000000      43.28939121       1.45704882
      12.80000000      23.90800546      45.00000000      43.28929711       1.45704565
      12.90000000      24.07801986      45.00000000      43.28920363       1.45704250
      13.00000000      24.30449310      45.00000000      43.28905399       1.45703747
      13.10000000      24.47452671      45.00000000      43.28896190       1.45703437
      13.20000000      24.64456860      45.00000000      43.28887050       1.45703129
      13.30000000      24.81461882      45.00000000      43.28877983       1.45702824
      13.40000000      25.04114071      45.00000000      43.28863345       1.45702331
      13.50000000      25.21121069      45.00000000      43.28854441       1.45702032
      13.60000000      25.38128918      45.00000000      43.28845617       1.45701735
      13.70000000      25.55137623      45.00000000      43.28836877       1.45701440
      13.80000000      25.72147189      45.00000000      43.28828221       1.45701149
      13.90000000      25.94805552      45.00000000      43.28814072       1.45700673
      14.00000000      26.11817162      45.00000000      43.28805610       1.45700388
      14.10000000      26.28829651      45.00000000      43.28797242       1.45700106
      14.20000000      26.45843025      45.00000000      43.28788969       1.45699828
      14.30000000      26.68506560      45.00000000      43.28775284       1.45699367
      14.40000000      26.85522033      45.00000000      43.28767230       1.45699096
      14.50000000      27.02538408      45.00000000      43.28759279       1.45698829
      14.60000000      27.19555691      45.00000000      43.28751436       1.45698565
      14.70000000      27.36573887      45.00000000      43.28743701       1.45698304
      14.80000000      27.59243969      45.00000000      43.28730677       1.45697866
      14.90000000      27.76264330      45.00000000      43.28723192       1.45697614
      15.00000000      27.93285623      45.00000000      43.28715824       1.45697366
      15.10000000      28.10307851      45.00000000      43.28708575       1.45697122
      15.20000000      28.27331021      45.00000000      43.28701448       1.45696882
      15.30000000      28.50007857      45.00000000      43.28689183       1.45696469
      15.40000000      28.67033258      45.00000000      43.28682337       1.45696239
      15.50000000      28.84059619      45.00000000      43.28675622       1.45696013
      15.60000000      29.01086944      45.00000000      43.28669039       1.45695791
      15.70000000      29.18115239      45.00000000      43.28662592       1.45695574
      15.80000000      29.35144508      45.00000000      43.28656283       1.45695362
      15.90000000      29.57829626      45.00000000      43.28645047       1.45694984
      16.00000000      29.74861205      45.00000000      43.28639056       1.45694782
      16.10000000      29.91893778      45.00000000      43.28633211       1.45694585
      16.20000000      30.08927347      45.00000000      43.28627514       1.45694394
      16.30000000      30.25961920      45.00000000      43.28621969       1.45694207
      16.40000000      30.42997501      45.00000000      43.28616577       1.45694025
      16.50000000      30.65691187      45.00000000      43.28606508       1.45693687
      16.60000000      30.82729156      45.00000000      43.28601472       1.45693517
      16.70000000      30.99768151      45.00000000      43.28596598       1.45693353
      16.80000000      31.16808177      45.00000000      43.28591888       1.45693194
      16.90000000      31.33849238      45.00000000      43.28587345       1.45693042
      17.00000000      31.50891341      45.00000000      43.28582972       1.45692894
      17.10000000      31.73593881      45.00000000      43.28574207       1.45692599
      17.20000000      31.90638450      45.00000000      43.28570227       1.45692465
      17.30000000      32.07684078      45.00000000      43.28566424       1.45692337
      17.40000000      32.24730770      45.00000000      43.28562801       1.45692215
      17.50000000      32.41778531      45.00000000      43.28559361       1.45692100
      17.60000000      32.58827365      45.00000000      43.28556107       1.45691990
      17.70000000      32.75877279      45.00000000      43.28553040       1.45691887
      17.80000000      32.98590423      45.00000000      43.28545958       1.45691649
      17.90000000      33.15642894      45.00000000      43.28543327       1.45691560
      18.00000000      33.32696461      45.00000000      43.28540892       1.45691478
      18.10000000      33.49751131      45.00000000      43.28538655       1.45691403
      18.20000000      33.66806907      45.00000000      43.28536619       1.45691334
      18.30000000      33.83863795      45.00000000      43.28534786       1.45691273
      18.40000000      34.00921801      45.00000000      43.28533159       1.45691218
      18.50000000      34.23645930      45.00000000      43.28527944       1.45691042
      18.60000000      34.40706582      45.00000000      43.28526795       1.45691004
      18.70000000      34.57768368      45.00000000      43.28525860       1.45690972
      18.80000000      34.74831295      45.00000000      43.28525142       1.45690948
      18.90000000      34.91895367      45.00000000      43.28524642       1.45690931
      19.00000000      35.08960589      45.00000000      43.28524363       1.45690922
      19.10000000      35.26026966      45.00000000      43.28524307       1.45690920
      19.20000000      35.43094503      45.00000000      43.28524478       1.45690926
      19.30000000      35.60163207      45.00000000      43.28524876       1.45690939
      19.40000000      35.82901860      45.00000000      43.28522302       1.45690852
      19.50000000      35.99973324      45.00000000      43.28523232       1.45690884
      19.60000000      36.17045971      45.00000000      43.28524399       1.45690923
      19.70000000      36.34119806      45.00000000      43.28525805       1.45690970
      19.80000000      36.51194835      45.00000000      43.28527451       1.45691026
      19.90000000      36.68271063      45.00000000      43.28529341       1.45691089
      20.00000000      36.85348494      45.00000000      43.28531476       1.45691161
      20.10000000      37.02427134      45.00000000      43.28533859       1.45691241
      20.20000000      37.19506989      45.00000000      43.28536493       1.45691330
      20.30000000      37.36588063      45.00000000      43.28539379       1.45691427
      20.40000000      37.53670361      45.00000000      43.28542520       1.45691533
      20.50000000      37.76427474      45.00000000      43.28543538       1.45691567
      20.60000000      37.93512672      45.00000000      43.28547273       1.45691693
      20.70000000      38.10599113      45.00000000      43.28551272       1.45691827
      20.80000000      38.27686800      45.00000000      43.28555535       1.45691971
      20.90000000      38.44775741      45.00000000      43.28560066       1.45692123
      21.00000000      38.61865939      45.00000000      43.28564866       1.45692285
      21.10000000      38.78957400      45.00000000      43.28569937       1.45692456
      21.20000000      38.96050130      45.00000000      43.28575282       1.45692636
      21.30000000      39.13144133      45.00000000      43.28580903       1.45692825
      21.40000000      39.30239415      45.00000000      43.28586803       1.45693023
      21.50000000      39.47335981      45.00000000      43.28592982       1.45693231
      21.60000000      39.64433836      45.00000000      43.28599445       1.45693449
      21.70000000      39.81532986      45.00000000      43.28606192       1.45693676
      21.80000000      39.98633436      45.00000000      43.28613226       1.45693913
      21.90000000      40.15735191      45.00000000      43.28620549       1.45694159
      22.00000000      40.32838256      45.00000000      43.28628163       1.45694415
      22.10000000      40.49942638      45.00000000      43.28636071       1.45694682
      22.20000000      40.67048341      45.00000000      43.28644273       1.45694958
      22.30000000      40.84155370      45.00000000      43.28652774       1.45695244
      22.40000000      41.01263731      45.00000000      43.28661574       1.45695540
      22.50000000      41.24056246      45.00000000      43.28670050       1.45695825
      22.60000000      41.41167761      45.00000000      43.28679551       1.45696145
      22.70000000      41.58280627      45.00000000      43.28689358       1.45696475
      22.80000000      41.75394848      45.00000000      43.28699473       1.45696816
      22.90000000      41.92510429      45.00000000      43.28709900       1.45697167
      23.00000000      42.09627378      45.00000000      43.28720639       1.45697528
