 # applied field (T), theta (degree), phi (degree), abs for RE 1-2
     0.00000   180.00000   180.00000     4.42636   180.00000   180.00000     4.42636
     0.10000   179.83438   180.00000     4.42636   179.83438   180.00000     4.42636
     0.20000   179.66875   180.00000     4.42636   179.66875   180.00000     4.42636
     0.30000   179.46163   180.00000     4.42634   179.46163   180.00000     4.42634
     0.40000   179.29599   180.00000     4.42633   179.29599   180.00000     4.42633
     0.50000   179.13032   180.00000     4.42631   179.13032   180.00000     4.42631
     0.60000   178.96464   180.00000     4.42629   178.96464   180.00000     4.42629
     0.70000   178.79894   180.00000     4.42626   178.79894   180.00000     4.42626
     0.80000   178.59170   180.00000     4.42622   178.59170   180.00000     4.42622
     0.90000   178.42593   180.00000     4.42618   178.42593   180.00000     4.42618
     1.00000   178.26012   180.00000     4.42614   178.26012   180.00000     4.42614
     1.10000   178.09428   180.00000     4.42610   178.09428   180.00000     4.42610
     1.20000   177.92840   180.00000     4.42605   177.92840   180.00000     4.42605
     1.30000   177.76247   180.00000     4.42599   177.76247   180.00000     4.42599
     1.40000   177.55492   180.00000     4.42592   177.55492   180.00000     4.42592
     1.50000   177.38887   180.00000     4.42586   177.38887   180.00000     4.42586
     1.60000   177.22277   180.00000     4.42580   177.22277   180.00000     4.42580
     1.70000   177.05660   180.00000     4.42572   177.05660   180.00000     4.42572
     1.80000   176.89038   180.00000     4.42565   176.89038   180.00000     4.42565
     1.90000   176.68242   180.00000     4.42555   176.68242   180.00000     4.42555
     2.00000   176.51603   180.00000     4.42547   176.51603   180.00000     4.42547
     2.10000   176.34957   180.00000     4.42538   176.34957   180.00000     4.42538
     2.20000   176.18302   180.00000     4.42529   176.18302   180.00000     4.42529
     2.30000   176.01639   180.00000     4.42519   176.01639   180.00000     4.42519
     2.40000   175.80791   180.00000     4.42507   175.80791   180.00000     4.42507
     2.50000   175.64108   180.00000     4.42497   175.64108   180.00000     4.42497
     2.60000   175.47415   180.00000     4.42486   175.47415   180.00000     4.42486
     2.70000   175.30712   180.00000     4.42474   175.30712   180.00000     4.42474
     2.80000   175.13999   180.00000     4.42463   175.13999   180.00000     4.42463
     2.90000   174.93085   180.00000     4.42447   174.93085   180.00000     4.42447
     3.00000   174.76347   180.00000     4.42435   174.76347   180.00000     4.42435
     3.10000   174.59597   180.00000     4.42422   174.59597   180.00000     4.42422
     3.20000   174.42835   180.00000     4.42408   174.42835   180.00000     4.42408
     3.30000   174.21859   180.00000     4.42391   174.21859   180.00000     4.42391
     3.40000   174.05068   180.00000     4.42377   174.05068   180.00000     4.42377
     3.50000   173.88265   180.00000     4.42362   173.88265   180.00000     4.42362
     3.60000   173.71448   180.00000     4.42347   173.71448   180.00000     4.42347
     3.70000   173.54616   180.00000     4.42331   173.54616   180.00000     4.42331
     3.80000   173.33551   180.00000     4.42311   173.33551   180.00000     4.42311
     3.90000   173.16686   180.00000     4.42295   173.16686   180.00000     4.42295
     4.00000   172.99807   180.00000     4.42278   172.99807   180.00000     4.42278
     4.10000   172.82911   180.00000     4.42260   172.82911   180.00000     4.42260
     4.20000   172.61764   180.00000     4.42238   172.61764   180.00000     4.42238
     4.30000   172.44831   180.00000     4.42220   172.44831   180.00000     4.42220
     4.40000   172.27882   180.00000     4.42201   172.27882   180.00000     4.42201
     4.50000   172.10915   180.00000     4.42182   172.10915   180.00000     4.42182
     4.60000   171.89677   180.00000     4.42158   171.89677   180.00000     4.42158
     4.70000   171.72669   180.00000     4.42138   171.72669   180.00000     4.42138
     4.80000   171.55643   180.00000     4.42118   171.55643   180.00000     4.42118
     4.90000   171.34329   180.00000     4.42092   171.34329   180.00000     4.42092
     5.00000   171.17259   180.00000     4.42070   171.17259   180.00000     4.42070
     5.10000   171.00170   180.00000     4.42049   171.00170   180.00000     4.42049
     5.20000   170.83059   180.00000     4.42026   170.83059   180.00000     4.42026
     5.30000   170.61638   180.00000     4.41998   170.61638   180.00000     4.41998
     5.40000   170.44480   180.00000     4.41975   170.44480   180.00000     4.41975
     5.50000   170.27300   180.00000     4.41952   170.27300   180.00000     4.41952
     5.60000   170.05790   180.00000     4.41922   170.05790   180.00000     4.41922
     5.70000   169.88560   180.00000     4.41898   169.88560   180.00000     4.41898
     5.80000   169.71306   180.00000     4.41873   169.71306   180.00000     4.41873
     5.90000   169.54029   180.00000     4.41847   169.54029   180.00000     4.41847
     6.00000   169.32395   180.00000     4.41816   169.32395   180.00000     4.41816
     6.10000   169.15062   180.00000     4.41789   169.15062   180.00000     4.41789
     6.20000   168.97705   180.00000     4.41763   168.97705   180.00000     4.41763
     6.30000   168.75970   180.00000     4.41729   168.75970   180.00000     4.41729
     6.40000   168.58555   180.00000     4.41702   168.58555   180.00000     4.41702
     6.50000   168.36746   180.00000     4.41667   168.36746   180.00000     4.41667
     6.60000   168.19270   180.00000     4.41639   168.19270   180.00000     4.41639
     6.70000   168.01767   180.00000     4.41610   168.01767   180.00000     4.41610
     6.80000   167.79847   180.00000     4.41573   167.79847   180.00000     4.41573
     6.90000   167.62281   180.00000     4.41544   167.62281   180.00000     4.41544
     7.00000   167.44685   180.00000     4.41513   167.44685   180.00000     4.41513
     7.10000   167.22648   180.00000     4.41475   167.22648   180.00000     4.41475
     7.20000   167.04985   180.00000     4.41444   167.04985   180.00000     4.41444
     7.30000   166.82863   180.00000     4.41405   166.82863   180.00000     4.41405
     7.40000   166.65132   180.00000     4.41373   166.65132   180.00000     4.41373
     7.50000   166.47368   180.00000     4.41341   166.47368   180.00000     4.41341
     7.60000   166.25119   180.00000     4.41300   166.25119   180.00000     4.41300
     7.70000   166.07283   180.00000     4.41266   166.07283   180.00000     4.41266
     7.80000   165.84942   180.00000     4.41224   165.84942   180.00000     4.41224
     7.90000   165.67031   180.00000     4.41190   165.67031   180.00000     4.41190
     8.00000   165.44594   180.00000     4.41147   165.44594   180.00000     4.41147
     8.10000   165.26606   180.00000     4.41112   165.26606   180.00000     4.41112
     8.20000   165.04071   180.00000     4.41068   165.04071   180.00000     4.41068
     8.30000   164.86003   180.00000     4.41032   164.86003   180.00000     4.41032
     8.40000   164.63368   180.00000     4.40986   164.63368   180.00000     4.40986
     8.50000   164.45217   180.00000     4.40949   164.45217   180.00000     4.40949
     8.60000   164.22477   180.00000     4.40903   164.22477   180.00000     4.40903
     8.70000   164.04241   180.00000     4.40865   164.04241   180.00000     4.40865
     8.80000   163.81394   180.00000     4.40817   163.81394   180.00000     4.40817
     8.90000   163.63071   180.00000     4.40778   163.63071   180.00000     4.40778
     9.00000   163.40113   180.00000     4.40730   163.40113   180.00000     4.40730
     9.10000   163.17093   180.00000     4.40680   163.17093   180.00000     4.40680
     9.20000   162.98628   180.00000     4.40640   162.98628   180.00000     4.40640
     9.30000   162.75493   180.00000     4.40590   162.75493   180.00000     4.40590
     9.40000   162.52291   180.00000     4.40539   162.52291   180.00000     4.40539
     9.50000   162.33679   180.00000     4.40497   162.33679   180.00000     4.40497
     9.60000   162.10357   180.00000     4.40445   162.10357   180.00000     4.40445
     9.70000   161.86967   180.00000     4.40392   161.86967   180.00000     4.40392
     9.80000   161.68201   180.00000     4.40349   161.68201   180.00000     4.40349
     9.90000   161.44684   180.00000     4.40295   161.44684   180.00000     4.40295
    10.00000   161.21097   180.00000     4.40241   161.21097   180.00000     4.40241
    10.10000   160.97437   180.00000     4.40186   160.97437   180.00000     4.40186
    10.20000   160.78452   180.00000     4.40141   160.78452   180.00000     4.40141
    10.30000   160.54659   180.00000     4.40085   160.54659   180.00000     4.40085
    10.40000   160.30791   180.00000     4.40029   160.30791   180.00000     4.40029
    10.50000   160.06847   180.00000     4.39971   160.06847   180.00000     4.39971
    10.60000   159.82826   180.00000     4.39914   159.82826   180.00000     4.39914
    10.70000   159.58726   180.00000     4.39855   159.58726   180.00000     4.39855
    10.80000   159.34546   180.00000     4.39796   159.34546   180.00000     4.39796
    10.90000   159.10286   180.00000     4.39737   159.10286   180.00000     4.39737
    11.00000   158.85945   180.00000     4.39677   158.85945   180.00000     4.39677
    11.10000   158.61521   180.00000     4.39616   158.61521   180.00000     4.39616
    11.20000   158.37013   180.00000     4.39555   158.37013   180.00000     4.39555
    11.30000   158.12421   180.00000     4.39493   158.12421   180.00000     4.39493
    11.40000   157.87743   180.00000     4.39431   157.87743   180.00000     4.39431
    11.50000   157.62977   180.00000     4.39368   157.62977   180.00000     4.39368
    11.60000   157.38124   180.00000     4.39305   157.38124   180.00000     4.39305
    11.70000   157.08191   180.00000     4.39229   157.08191   180.00000     4.39229
    11.80000   156.83141   180.00000     4.39165   156.83141   180.00000     4.39165
    11.90000   156.58000   180.00000     4.39100   156.58000   180.00000     4.39100
    12.00000   156.27717   180.00000     4.39022   156.27717   180.00000     4.39022
    12.10000   156.02371   180.00000     4.38956   156.02371   180.00000     4.38956
    12.20000   155.76930   180.00000     4.38889   155.76930   180.00000     4.38889
    12.30000   155.46285   180.00000     4.38810   155.46285   180.00000     4.38810
    12.40000   155.20633   180.00000     4.38742   155.20633   180.00000     4.38742
    12.50000   154.89731   180.00000     4.38661   154.89731   180.00000     4.38661
    12.60000   154.58687   180.00000     4.38579   154.58687   180.00000     4.38579
    12.70000   154.32698   180.00000     4.38511   154.32698   180.00000     4.38511
    12.80000   154.01388   180.00000     4.38428   154.01388   180.00000     4.38428
    12.90000   153.69931   180.00000     4.38345   153.69931   180.00000     4.38345
    13.00000   153.38325   180.00000     4.38261   153.38325   180.00000     4.38261
    13.10000   153.06569   180.00000     4.38176   153.06569   180.00000     4.38176
    13.20000   152.74660   180.00000     4.38091   152.74660   180.00000     4.38091
    13.30000   152.42598   180.00000     4.38006   152.42598   180.00000     4.38006
    13.40000   152.05007   180.00000     4.37906   152.05007   180.00000     4.37906
    13.50000   151.72606   180.00000     4.37820   151.72606   180.00000     4.37820
    13.60000   151.34617   180.00000     4.37719   151.34617   180.00000     4.37719
    13.70000   151.01871   180.00000     4.37632   151.01871   180.00000     4.37632
    13.80000   150.63475   180.00000     4.37531   150.63475   180.00000     4.37531
    13.90000   150.24858   180.00000     4.37428   150.24858   180.00000     4.37428
    14.00000   149.86017   180.00000     4.37326   149.86017   180.00000     4.37326
    14.10000   149.46949   180.00000     4.37223   149.46949   180.00000     4.37223
    14.20000   149.07655   180.00000     4.37120   149.07655   180.00000     4.37120
    14.30000   148.62478   180.00000     4.37002   148.62478   180.00000     4.37002
    14.40000   148.17000   180.00000     4.36884   148.17000   180.00000     4.36884
    14.50000    90.00000   180.00000     4.34015    90.00000   180.00000     4.34015
    14.60000    90.00000   180.00000     4.34011    90.00000   180.00000     4.34011
    14.70000    90.00000   180.00000     4.34006    90.00000   180.00000     4.34006
    14.80000    90.00000   180.00000     4.34001    90.00000   180.00000     4.34001
    14.90000    90.00000   180.00000     4.33997    90.00000   180.00000     4.33997
    15.00000    90.00000   180.00000     4.33992    90.00000   180.00000     4.33992
    15.10000    90.00000   180.00000     4.33988    90.00000   180.00000     4.33988
    15.20000    90.00000   180.00000     4.33983    90.00000   180.00000     4.33983
    15.30000    90.00000   180.00000     4.33978    90.00000   180.00000     4.33978
    15.40000    90.00000   180.00000     4.33974    90.00000   180.00000     4.33974
    15.50000    90.00000   180.00000     4.33969    90.00000   180.00000     4.33969
    15.60000    90.00000   180.00000     4.33965    90.00000   180.00000     4.33965
    15.70000    90.00000   180.00000     4.33960    90.00000   180.00000     4.33960
    15.80000    90.00000   180.00000     4.33956    90.00000   180.00000     4.33956
    15.90000    90.00000   180.00000     4.33951    90.00000   180.00000     4.33951
    16.00000    90.00000   180.00000     4.33946    90.00000   180.00000     4.33946
    16.10000    90.00000   180.00000     4.33942    90.00000   180.00000     4.33942
    16.20000    90.00000   180.00000     4.33937    90.00000   180.00000     4.33937
    16.30000    90.00000   180.00000     4.33933    90.00000   180.00000     4.33933
    16.40000    90.00000   180.00000     4.33928    90.00000   180.00000     4.33928
    16.50000    90.00000   180.00000     4.33923    90.00000   180.00000     4.33923
    16.60000    90.00000   180.00000     4.33919    90.00000   180.00000     4.33919
    16.70000    90.00000   180.00000     4.33914    90.00000   180.00000     4.33914
    16.80000    90.00000   180.00000     4.33910    90.00000   180.00000     4.33910
    16.90000    90.00000   180.00000     4.33905    90.00000   180.00000     4.33905
    17.00000    90.00000   180.00000     4.33900    90.00000   180.00000     4.33900
    17.10000    90.00000   180.00000     4.33896    90.00000   180.00000     4.33896
    17.20000    90.00000   180.00000     4.33891    90.00000   180.00000     4.33891
    17.30000    90.00000   180.00000     4.33887    90.00000   180.00000     4.33887
    17.40000    90.00000   180.00000     4.33882    90.00000   180.00000     4.33882
    17.50000    90.00000   180.00000     4.33877    90.00000   180.00000     4.33877
    17.60000    90.00000   180.00000     4.33873    90.00000   180.00000     4.33873
    17.70000    90.00000   180.00000     4.33868    90.00000   180.00000     4.33868
    17.80000    90.00000   180.00000     4.33864    90.00000   180.00000     4.33864
    17.90000    90.00000   180.00000     4.33859    90.00000   180.00000     4.33859
    18.00000    90.00000   180.00000     4.33854    90.00000   180.00000     4.33854
    18.10000    90.00000   180.00000     4.33850    90.00000   180.00000     4.33850
    18.20000    90.00000   180.00000     4.33845    90.00000   180.00000     4.33845
    18.30000    90.00000   180.00000     4.33841    90.00000   180.00000     4.33841
    18.40000    90.00000   180.00000     4.33836    90.00000   180.00000     4.33836
    18.50000    90.00000   180.00000     4.33831    90.00000   180.00000     4.33831
    18.60000    90.00000   180.00000     4.33827    90.00000   180.00000     4.33827
    18.70000    90.00000   180.00000     4.33822    90.00000   180.00000     4.33822
    18.80000    90.00000   180.00000     4.33818    90.00000   180.00000     4.33818
    18.90000    90.00000   180.00000     4.33813    90.00000   180.00000     4.33813
    19.00000    90.00000   180.00000     4.33808    90.00000   180.00000     4.33808
    19.10000    90.00000   180.00000     4.33804    90.00000   180.00000     4.33804
    19.20000    90.00000   180.00000     4.33799    90.00000   180.00000     4.33799
    19.30000    90.00000   180.00000     4.33795    90.00000   180.00000     4.33795
    19.40000    90.00000   180.00000     4.33790    90.00000   180.00000     4.33790
    19.50000    90.00000   180.00000     4.33785    90.00000   180.00000     4.33785
    19.60000    90.00000   180.00000     4.33781    90.00000   180.00000     4.33781
    19.70000    90.00000   180.00000     4.33776    90.00000   180.00000     4.33776
    19.80000    90.00000   180.00000     4.33772    90.00000   180.00000     4.33772
    19.90000    90.00000   180.00000     4.33767    90.00000   180.00000     4.33767
    20.00000    90.00000   180.00000     4.33762    90.00000   180.00000     4.33762
    20.10000    90.00000   180.00000     4.33758    90.00000   180.00000     4.33758
    20.20000    90.00000   180.00000     4.33753    90.00000   180.00000     4.33753
    20.30000    90.00000   180.00000     4.33748    90.00000   180.00000     4.33748
    20.40000    90.00000   180.00000     4.33744    90.00000   180.00000     4.33744
    20.50000    90.00000   180.00000     4.33739    90.00000   180.00000     4.33739
    20.60000    90.00000   180.00000     4.33735    90.00000   180.00000     4.33735
    20.70000    90.00000   180.00000     4.33730    90.00000   180.00000     4.33730
    20.80000    90.00000   180.00000     4.33725    90.00000   180.00000     4.33725
    20.90000    90.00000   180.00000     4.33721    90.00000   180.00000     4.33721
    21.00000    90.00000   180.00000     4.33716    90.00000   180.00000     4.33716
    21.10000    90.00000   180.00000     4.33712    90.00000   180.00000     4.33712
    21.20000    90.00000   180.00000     4.33707    90.00000   180.00000     4.33707
    21.30000    90.00000   180.00000     4.33702    90.00000   180.00000     4.33702
    21.40000    90.00000   180.00000     4.33698    90.00000   180.00000     4.33698
    21.50000    90.00000   180.00000     4.33693    90.00000   180.00000     4.33693
    21.60000    90.00000   180.00000     4.33688    90.00000   180.00000     4.33688
    21.70000    90.00000   180.00000     4.33684    90.00000   180.00000     4.33684
    21.80000    90.00000   180.00000     4.33679    90.00000   180.00000     4.33679
    21.90000    90.00000   180.00000     4.33675    90.00000   180.00000     4.33675
    22.00000    90.00000   180.00000     4.33670    90.00000   180.00000     4.33670
    22.10000    90.00000   180.00000     4.33665    90.00000   180.00000     4.33665
    22.20000    90.00000   180.00000     4.33661    90.00000   180.00000     4.33661
    22.30000    90.00000   180.00000     4.33656    90.00000   180.00000     4.33656
    22.40000    90.00000   180.00000     4.33651    90.00000   180.00000     4.33651
    22.50000    90.00000   180.00000     4.33647    90.00000   180.00000     4.33647
    22.60000    90.00000   180.00000     4.33642    90.00000   180.00000     4.33642
    22.70000    90.00000   180.00000     4.33638    90.00000   180.00000     4.33638
    22.80000    90.00000   180.00000     4.33633    90.00000   180.00000     4.33633
    22.90000    90.00000   180.00000     4.33628    90.00000   180.00000     4.33628
    23.00000    90.00000   180.00000     4.33624    90.00000   180.00000     4.33624
    23.10000    90.00000   180.00000     4.33619    90.00000   180.00000     4.33619
    23.20000    90.00000   180.00000     4.33614    90.00000   180.00000     4.33614
    23.30000    90.00000   180.00000     4.33610    90.00000   180.00000     4.33610
