 # applied field (T), theta (degree), phi (degree), abs for RE 3-4
     0.00000     0.00000     0.00000     0.27584     0.00000     0.00000     0.27584
     0.10000     0.10071   135.31491     0.27584     0.10071   314.68509     0.27584
     0.20000     0.20141   135.30969     0.27585     0.20141   314.69031     0.27585
     0.30000     0.30210   135.30099     0.27586     0.30210   314.69901     0.27586
     0.40000     0.40277   135.28881     0.27588     0.40277   314.71119     0.27588
     0.50000     0.50341   135.27315     0.27590     0.50341   314.72685     0.27590
     0.60000     0.60403   135.25400     0.27592     0.60403   314.74600     0.27592
     0.70000     0.70461   135.23138     0.27595     0.70461   314.76862     0.27595
     0.80000     0.80514   135.20528     0.27599     0.80514   314.79472     0.27599
     0.90000     0.90563   135.17571     0.27603     0.90563   314.82429     0.27603
     1.00000     1.03105   135.90980     0.27608     1.03105   314.09020     0.27608
     1.10000     1.13139   135.80337     0.27613     1.13139   314.19663     0.27613
     1.20000     1.23167   135.70472     0.27618     1.23167   314.29528     0.27618
     1.30000     1.33187   135.61131     0.27624     1.33187   314.38869     0.27624
     1.40000     1.43200   135.52130     0.27630     1.43200   314.47870     0.27630
     1.50000     1.53205   135.43335     0.27637     1.53205   314.56665     0.27637
     1.60000     1.63200   135.34644     0.27644     1.63200   314.65356     0.27644
     1.70000     1.73186   135.25977     0.27652     1.73186   314.74023     0.27652
     1.80000     1.83163   135.17275     0.27660     1.83163   314.82725     0.27660
     1.90000     1.93129   135.08488     0.27668     1.93129   314.91512     0.27668
     2.00000     2.03084   134.99579     0.27677     2.03084   315.00421     0.27677
     2.10000     2.13028   134.90515     0.27686     2.13028   315.09485     0.27686
     2.20000     2.22960   134.81271     0.27696     2.22960   315.18729     0.27696
     2.30000     2.32880   134.71825     0.27706     2.32880   315.28175     0.27706
     2.40000     2.42787   134.62161     0.27717     2.42787   315.37839     0.27717
     2.50000     2.52682   134.52262     0.27728     2.52682   315.47738     0.27728
     2.60000     2.62563   134.42118     0.27739     2.62563   315.57882     0.27739
     2.70000     2.74853   134.57919     0.27754     2.74853   315.42081     0.27754
     2.80000     2.84700   134.46164     0.27767     2.84700   315.53836     0.27767
     2.90000     2.94532   134.34202     0.27780     2.94532   315.65798     0.27780
     3.00000     3.04349   134.22019     0.27793     3.04349   315.77981     0.27793
     3.10000     3.14151   134.09605     0.27807     3.14151   315.90395     0.27807
     3.20000     3.23938   133.96950     0.27821     3.23938   316.03050     0.27821
     3.30000     3.33709   133.84044     0.27835     3.33709   316.15956     0.27835
     3.40000     3.43464   133.70880     0.27850     3.43464   316.29120     0.27850
     3.50000     3.53204   133.57452     0.27865     3.53204   316.42548     0.27865
     3.60000     3.62927   133.43753     0.27881     3.62927   316.56247     0.27881
     3.70000     3.72633   133.29779     0.27897     3.72633   316.70221     0.27897
     3.80000     3.82323   133.15524     0.27913     3.82323   316.84476     0.27913
     3.90000     3.91997   133.00985     0.27930     3.91997   316.99015     0.27930
     4.00000     4.01654   132.86158     0.27947     4.01654   317.13842     0.27947
     4.10000     4.13617   132.86112     0.27970     4.13617   317.13888     0.27970
     4.20000     4.23232   132.70174     0.27988     4.23232   317.29826     0.27988
     4.30000     4.32831   132.53961     0.28007     4.32831   317.46039     0.28007
     4.40000     4.42413   132.37467     0.28025     4.42413   317.62533     0.28025
     4.50000     4.51978   132.20691     0.28045     4.51978   317.79309     0.28045
     4.60000     4.61527   132.03630     0.28064     4.61527   317.96370     0.28064
     4.70000     4.71059   131.86282     0.28084     4.71059   318.13718     0.28084
     4.80000     4.80575   131.68644     0.28104     4.80575   318.31356     0.28104
     4.90000     4.90075   131.50715     0.28125     4.90075   318.49285     0.28125
     5.00000     4.99559   131.32494     0.28146     4.99559   318.67506     0.28146
     5.10000     5.09027   131.13979     0.28167     5.09027   318.86021     0.28167
     5.20000     5.18479   130.95169     0.28189     5.18479   319.04831     0.28189
     5.30000     5.30140   130.85726     0.28217     5.30140   319.14274     0.28217
     5.40000     5.39554   130.65974     0.28239     5.39554   319.34026     0.28239
     5.50000     5.48954   130.45935     0.28262     5.48954   319.54065     0.28262
     5.60000     5.58340   130.25609     0.28285     5.58340   319.74391     0.28285
     5.70000     5.67712   130.04994     0.28309     5.67712   319.95006     0.28309
     5.80000     5.77071   129.84090     0.28332     5.77071   320.15910     0.28332
     5.90000     5.86417   129.62898     0.28356     5.86417   320.37102     0.28356
     6.00000     5.95752   129.41417     0.28380     5.95752   320.58583     0.28380
     6.10000     6.05074   129.19648     0.28405     6.05074   320.80352     0.28405
     6.20000     6.14385   128.97590     0.28430     6.14385   321.02410     0.28430
     6.30000     6.25826   128.81651     0.28462     6.25826   321.18349     0.28462
     6.40000     6.35110   128.58747     0.28488     6.35110   321.41253     0.28488
     6.50000     6.44384   128.35562     0.28514     6.44384   321.64438     0.28514
     6.60000     6.53649   128.12097     0.28540     6.53649   321.87903     0.28540
     6.70000     6.62907   127.88353     0.28566     6.62907   322.11647     0.28566
     6.80000     6.72158   127.64331     0.28592     6.72158   322.35669     0.28592
     6.90000     6.81403   127.40033     0.28619     6.81403   322.59967     0.28619
     7.00000     6.90642   127.15458     0.28646     6.90642   322.84542     0.28646
     7.10000     6.99877   126.90610     0.28674     6.99877   323.09390     0.28674
     7.20000     7.11183   126.69537     0.28709     7.11183   323.30463     0.28709
     7.30000     7.20405   126.43918     0.28737     7.20405   323.56082     0.28737
     7.40000     7.29625   126.18034     0.28765     7.29625   323.81966     0.28765
     7.50000     7.38845   125.91886     0.28794     7.38845   324.08114     0.28794
     7.60000     7.48065   125.65476     0.28822     7.48065   324.34524     0.28822
     7.70000     7.57286   125.38807     0.28851     7.57286   324.61193     0.28851
     7.80000     7.66510   125.11880     0.28880     7.66510   324.88120     0.28880
     7.90000     7.77770   124.87165     0.28918     7.77770   325.12835     0.28918
     8.00000     7.86997   124.59530     0.28947     7.86997   325.40470     0.28947
     8.10000     7.96229   124.31648     0.28977     7.96229   325.68352     0.28977
     8.20000     8.05468   124.03522     0.29007     8.05468   325.96478     0.29007
     8.30000     8.14716   123.75152     0.29037     8.14716   326.24848     0.29037
     8.40000     8.23972   123.46543     0.29067     8.23972   326.53457     0.29067
     8.50000     8.33239   123.17698     0.29097     8.33239   326.82302     0.29097
     8.60000     8.44524   122.89695     0.29137     8.44524   327.10305     0.29137
     8.70000     8.53813   122.60208     0.29167     8.53813   327.39792     0.29167
     8.80000     8.63117   122.30497     0.29198     8.63117   327.69503     0.29198
     8.90000     8.72436   122.00564     0.29229     8.72436   327.99436     0.29229
     9.00000     8.81773   121.70413     0.29260     8.81773   328.29587     0.29260
     9.10000     8.91128   121.40047     0.29292     8.91128   328.59953     0.29292
     9.20000     9.02497   121.09472     0.29332     9.02497   328.90528     0.29332
     9.30000     9.11893   120.78528     0.29364     9.11893   329.21472     0.29364
     9.40000     9.21312   120.47382     0.29396     9.21312   329.52618     0.29396
     9.50000     9.30755   120.16038     0.29428     9.30755   329.83962     0.29428
     9.60000     9.40224   119.84500     0.29460     9.40224   330.15500     0.29460
     9.70000     9.51714   119.51955     0.29501     9.51714   330.48045     0.29501
     9.80000     9.61240   119.19896     0.29533     9.61240   330.80104     0.29533
     9.90000     9.70797   118.87657     0.29566     9.70797   331.12343     0.29566
    10.00000     9.80386   118.55242     0.29598     9.80386   331.44758     0.29598
    10.10000     9.90009   118.22656     0.29630     9.90009   331.77344     0.29630
    10.20000    10.01671   117.88338     0.29673    10.01671   332.11662     0.29673
    10.30000    10.11369   117.55290     0.29705    10.11369   332.44710     0.29705
    10.40000    10.21105   117.22087     0.29738    10.21105   332.77913     0.29738
    10.50000    10.30881   116.88733     0.29771    10.30881   333.11267     0.29771
    10.60000    10.40699   116.55231     0.29803    10.40699   333.44769     0.29803
    10.70000    10.52586   116.19341     0.29846    10.52586   333.80659     0.29846
    10.80000    10.62497   115.85440     0.29879    10.62497   334.14560     0.29879
    10.90000    10.72456   115.51409     0.29912    10.72456   334.48591     0.29912
    11.00000    10.82463   115.17253     0.29945    10.82463   334.82747     0.29945
    11.10000    10.94570   114.80222     0.29988    10.94570   335.19778     0.29988
    11.20000    11.04685   114.45719     0.30021    11.04685   335.54281     0.30021
    11.30000    11.14854   114.11107     0.30054    11.14854   335.88893     0.30054
    11.40000    11.25078   113.76392     0.30087    11.25078   336.23608     0.30087
    11.50000    11.35360   113.41577     0.30120    11.35360   336.58423     0.30120
    11.60000    11.47791   113.03351     0.30163    11.47791   336.96649     0.30163
    11.70000    11.58199   112.68256     0.30196    11.58199   337.31744     0.30196
    11.80000    11.68670   112.33079     0.30229    11.68670   337.66921     0.30229
    11.90000    11.79204   111.97826     0.30262    11.79204   338.02174     0.30262
    12.00000    11.91938   111.58771     0.30305    11.91938   338.41229     0.30305
    12.10000    12.02615   111.23291     0.30338    12.02615   338.76709     0.30338
    12.20000    12.13361   110.87753     0.30371    12.13361   339.12247     0.30371
    12.30000    12.26349   110.48137     0.30413    12.26349   339.51863     0.30413
    12.40000    12.37250   110.12415     0.30446    12.37250   339.87585     0.30446
    12.50000    12.48225   109.76651     0.30479    12.48225   340.23349     0.30479
    12.60000    12.59275   109.40851     0.30512    12.59275   340.59149     0.30512
    12.70000    12.72630   109.00651     0.30554    12.72630   340.99349     0.30554
    12.80000    12.83850   108.64721     0.30587    12.83850   341.35279     0.30587
    12.90000    12.95150   108.28771     0.30620    12.95150   341.71229     0.30620
    13.00000    13.08808   107.88199     0.30662    13.08808   342.11801     0.30662
    13.10000    13.20289   107.52161     0.30694    13.20289   342.47839     0.30694
    13.20000    13.31856   107.16121     0.30726    13.31856   342.83879     0.30726
    13.30000    13.45838   106.75256     0.30768    13.45838   343.24744     0.30768
    13.40000    13.57596   106.39167     0.30800    13.57596   343.60833     0.30800
    13.50000    13.69445   106.03092     0.30832    13.69445   343.96908     0.30832
    13.60000    13.83771   105.62013     0.30874    13.83771   344.37987     0.30874
    13.70000    13.95822   105.25929     0.30906    13.95822   344.74071     0.30906
    13.80000    14.07969   104.89876     0.30937    14.07969   345.10124     0.30937
    13.90000    14.22657   104.48658     0.30978    14.22657   345.51342     0.30978
    14.00000    14.35017   104.12634     0.31010    14.35017   345.87366     0.31010
    14.10000    14.47475   103.76656     0.31041    14.47475   346.23344     0.31041
    14.20000    14.62547   103.35372     0.31082    14.62547   346.64628     0.31082
    14.30000    14.75228   102.99460     0.31113    14.75228   347.00540     0.31113
    14.40000    14.88014   102.63609     0.31143    14.88014   347.36391     0.31143
    14.50000    15.03485   102.22329     0.31183    15.03485   347.77671     0.31183
    14.60000    15.16503   101.86579     0.31214    15.16503   348.13421     0.31214
    14.70000    15.29629   101.50904     0.31244    15.29629   348.49096     0.31244
    14.80000    15.45519   101.09697     0.31284    15.45519   348.90303     0.31284
    14.90000    15.58886   100.74156     0.31313    15.58886   349.25844     0.31313
    15.00000    15.72365   100.38704     0.31343    15.72365   349.61296     0.31343
    15.10000    15.88690    99.97632     0.31382    15.88690   350.02368     0.31382
    15.20000    16.02420    99.62346     0.31411    16.02420   350.37654     0.31411
    15.30000    16.19054    99.21386     0.31450    16.19054   350.78614     0.31450
    15.40000    16.33041    98.86285     0.31479    16.33041   351.13715     0.31479
    15.50000    16.47145    98.51296     0.31507    16.47145   351.48704     0.31507
    15.60000    16.64240    98.10572     0.31545    16.64240   351.89428     0.31545
    15.70000    16.78609    97.75796     0.31573    16.78609   352.24204     0.31573
    15.80000    16.96032    97.35250     0.31610    16.96032   352.64750     0.31610
    15.90000    17.10671    97.00708     0.31638    17.10671   352.99292     0.31638
    16.00000    17.25434    96.66293     0.31666    17.25434   353.33707     0.31666
    16.10000    17.43343    96.26074     0.31702    17.43343   353.73926     0.31702
    16.20000    17.58383    95.91917     0.31729    17.58383   354.08083     0.31729
    16.30000    17.76636    95.51935     0.31765    17.76636   354.48065     0.31765
    16.40000    17.91957    95.18051     0.31792    17.91957   354.81949     0.31792
    16.50000    18.10560    94.78329     0.31826    18.10560   355.21671     0.31826
    16.60000    18.26169    94.44733     0.31853    18.26169   355.55267     0.31853
    16.70000    18.45128    94.05292     0.31887    18.45128   355.94708     0.31887
    16.80000    18.61028    93.71998     0.31913    18.61028   356.28002     0.31913
    16.90000    18.77061    93.38860     0.31938    18.77061   356.61140     0.31938
    17.00000    18.96545    92.99878     0.31972    18.96545   357.00122     0.31972
    17.10000    19.12875    92.67060     0.31997    19.12875   357.32940     0.31997
    17.20000    19.32728    92.28403     0.32029    19.32728   357.71597     0.32029
    17.30000    19.49360    91.95916     0.32054    19.49360   358.04084     0.32054
    17.40000    19.69588    91.57601     0.32086    19.69588   358.42399     0.32086
    17.50000    19.86525    91.25456     0.32110    19.86525   358.74544     0.32110
    17.60000    20.07133    90.87497     0.32141    20.07133   359.12503     0.32141
    17.70000    20.24379    90.55703     0.32164    20.24379   359.44297     0.32164
    17.80000    20.45372    90.18115     0.32195    20.45372   359.81885     0.32195
    17.90000    20.62930    89.86680     0.32218    20.62930     0.13320     0.32218
    18.00000    20.84313    89.49475     0.32247    20.84313     0.50525     0.32247
    18.10000    21.02187    89.18408     0.32270    21.02187     0.81592     0.32270
    18.20000    21.23963    88.81597     0.32299    21.23963     1.18403     0.32299
    18.30000    21.42157    88.50904     0.32320    21.42157     1.49096     0.32320
    18.40000    21.64331    88.14497     0.32348    21.64331     1.85503     0.32348
    18.50000    21.82847    87.84184     0.32369    21.82847     2.15816     0.32369
    18.60000    22.05424    87.48191     0.32397    22.05424     2.51809     0.32397
    18.70000    22.24266    87.18263     0.32417    22.24266     2.81737     0.32417
    18.80000    22.47248    86.82692     0.32444    22.47248     3.17308     0.32444
    18.90000    22.66418    86.53154     0.32464    22.66418     3.46846     0.32464
    19.00000    22.89811    86.18012     0.32490    22.89811     3.81988     0.32490
    19.10000    23.09312    85.88867     0.32509    23.09312     4.11133     0.32509
    19.20000    23.33119    85.54160     0.32534    23.33119     4.45840     0.32534
    19.30000    23.52954    85.25411     0.32553    23.52954     4.74589     0.32553
    19.40000    23.77179    84.91144     0.32577    23.77179     5.08856     0.32577
    19.50000    23.97350    84.62794     0.32595    23.97350     5.37206     0.32595
    19.60000    24.21996    84.28973     0.32618    24.21996     5.71027     0.32618
    19.70000    24.42507    84.01022     0.32636    24.42507     5.98978     0.32636
    19.80000    24.67577    83.67650     0.32658    24.67577     6.32350     0.32658
    19.90000    24.88429    83.40101     0.32675    24.88429     6.59899     0.32675
    20.00000    25.13929    83.07180     0.32697    25.13929     6.92820     0.32697
    20.10000    25.35125    82.80033     0.32713    25.35125     7.19967     0.32713
    20.20000    25.61055    82.47567     0.32734    25.61055     7.52433     0.32734
    20.30000    25.87227    82.15343     0.32755    25.87227     7.84657     0.32755
    20.40000    26.08964    81.88811     0.32770    26.08964     8.11189     0.32770
    20.50000    26.35573    81.57044     0.32790    26.35573     8.42956     0.32790
    20.60000    26.57660    81.30915     0.32804    26.57660     8.69085     0.32804
    20.70000    26.84709    80.99605     0.32823    26.84709     9.00395     0.32823
    20.80000    27.07149    80.73877     0.32837    27.07149     9.26123     0.32837
    20.90000    27.34641    80.43026     0.32855    27.34641     9.56974     0.32855
    21.00000    27.57437    80.17697     0.32868    27.57437     9.82303     0.32868
    21.10000    27.85376    79.87304     0.32885    27.85376    10.12696     0.32885
    21.20000    28.08529    79.62373     0.32898    28.08529    10.37627     0.32898
    21.30000    28.36918    79.32437     0.32914    28.36918    10.67563     0.32914
    21.40000    28.65559    79.02746     0.32930    28.65559    10.97254     0.32930
    21.50000    28.89274    78.78423     0.32942    28.89274    11.21577     0.32942
    21.60000    29.18371    78.49188     0.32957    29.18371    11.50812     0.32957
    21.70000    29.42449    78.25259     0.32968    29.42449    11.74741     0.32968
    21.80000    29.72005    77.96478     0.32982    29.72005    12.03522     0.32982
    21.90000    29.96450    77.72940     0.32992    29.96450    12.27060     0.32992
    22.00000    30.26467    77.44612     0.33006    30.26467    12.55388     0.33006
    22.10000    30.56743    77.16527     0.33019    30.56743    12.83473     0.33019
    22.20000    30.81763    76.93585     0.33028    30.81763    13.06415     0.33028
    22.30000    31.12507    76.65950     0.33041    31.12507    13.34050     0.33041
    22.40000    31.37900    76.43392     0.33049    31.37900    13.56608     0.33049
    22.50000    31.69114    76.16204     0.33061    31.69114    13.83796     0.33061
    22.60000    31.94884    75.94028     0.33069    31.94884    14.05972     0.33069
    22.70000    32.26572    75.67286     0.33080    32.26572    14.32714     0.33080
    22.80000    32.52719    75.45487     0.33087    32.52719    14.54513     0.33087
    22.90000    32.84885    75.19188     0.33097    32.84885    14.80812     0.33097
    23.00000    33.17319    74.93126     0.33107    33.17319    15.06874     0.33107
    23.10000    33.44061    74.71905     0.33113    33.44061    15.28095     0.33113
    23.20000    33.76978    74.46282     0.33122    33.76978    15.53718     0.33122
    23.30000    34.04105    74.25432     0.33128    34.04105    15.74568     0.33128
