 # applied field (T), theta (degree), phi (degree), abs [muB/unitcell], abs [T]
       0.00000000       0.00000000       0.00000000      43.98488140       1.47040583
       0.10000000       0.45627128     360.00000000      43.98488782       1.47040604
       0.20000000       0.85560408     360.00000000      43.98490420       1.47040659
       0.30000000       1.31188370     360.00000000      43.98493483       1.47040761
       0.40000000       1.71122853     360.00000000      43.98497260       1.47040888
       0.50000000       2.16752735     360.00000000      43.98502742       1.47041071
       0.60000000       2.56689371     360.00000000      43.98508659       1.47041269
       0.70000000       3.02322256     360.00000000      43.98516559       1.47041533
       0.80000000       3.47957186     360.00000000      43.98525743       1.47041840
       0.90000000      90.00000000     360.00000000      43.98872608       1.47053435
       1.00000000      90.00000000     360.00000000      43.98876463       1.47053564
       1.10000000      90.00000000     360.00000000      43.98880317       1.47053693
       1.20000000      90.00000000     360.00000000      43.98884173       1.47053822
       1.30000000      90.00000000     360.00000000      43.98888028       1.47053951
       1.40000000      90.00000000     360.00000000      43.98891884       1.47054080
       1.50000000      90.00000000     360.00000000      43.98895741       1.47054209
       1.60000000      90.00000000     360.00000000      43.98899598       1.47054338
       1.70000000      90.00000000     360.00000000      43.98903456       1.47054467
       1.80000000      90.00000000     360.00000000      43.98907313       1.47054596
       1.90000000      90.00000000     360.00000000      43.98911172       1.47054724
       2.00000000      90.00000000     360.00000000      43.98915031       1.47054853
       2.10000000      90.00000000     360.00000000      43.98918890       1.47054983
       2.20000000      90.00000000     360.00000000      43.98922750       1.47055112
       2.30000000      90.00000000     360.00000000      43.98926610       1.47055241
       2.40000000      90.00000000     360.00000000      43.98930471       1.47055370
       2.50000000      90.00000000     360.00000000      43.98934332       1.47055499
       2.60000000      90.00000000     360.00000000      43.98938194       1.47055628
       2.70000000      90.00000000     360.00000000      43.98942056       1.47055757
       2.80000000      90.00000000     360.00000000      43.98945919       1.47055886
       2.90000000      90.00000000     360.00000000      43.98949782       1.47056015
       3.00000000      90.00000000     360.00000000      43.98953645       1.47056144
       3.10000000      90.00000000     360.00000000      43.98957509       1.47056274
       3.20000000      90.00000000     360.00000000      43.98961374       1.47056403
       3.30000000      90.00000000     360.00000000      43.98965239       1.47056532
       3.40000000      90.00000000     360.00000000      43.98969104       1.47056661
       3.50000000      90.00000000     360.00000000      43.98972970       1.47056790
       3.60000000      90.00000000     360.00000000      43.98976836       1.47056920
       3.70000000      90.00000000     360.00000000      43.98980703       1.47057049
       3.80000000      90.00000000     360.00000000      43.98984570       1.47057178
       3.90000000      90.00000000     360.00000000      43.98988438       1.47057307
       4.00000000      90.00000000     360.00000000      43.98992306       1.47057437
       4.10000000      90.00000000     360.00000000      43.98996175       1.47057566
       4.20000000      90.00000000     360.00000000      43.99000044       1.47057695
       4.30000000      90.00000000     360.00000000      43.99003913       1.47057825
       4.40000000      90.00000000     360.00000000      43.99007783       1.47057954
       4.50000000      90.00000000     360.00000000      43.99011654       1.47058084
       4.60000000      90.00000000     360.00000000      43.99015525       1.47058213
       4.70000000      90.00000000     360.00000000      43.99019396       1.47058342
       4.80000000      90.00000000     360.00000000      43.99023268       1.47058472
       4.90000000      90.00000000     360.00000000      43.99027140       1.47058601
       5.00000000      90.00000000     360.00000000      43.99031013       1.47058731
       5.10000000      90.00000000     360.00000000      43.99034886       1.47058860
       5.20000000      90.00000000     360.00000000      43.99038760       1.47058990
       5.30000000      90.00000000     360.00000000      43.99042634       1.47059119
       5.40000000      90.00000000     360.00000000      43.99046509       1.47059249
       5.50000000      90.00000000     360.00000000      43.99050384       1.47059378
       5.60000000      90.00000000     360.00000000      43.99054259       1.47059508
       5.70000000      90.00000000     360.00000000      43.99058135       1.47059637
       5.80000000      90.00000000     360.00000000      43.99062012       1.47059767
       5.90000000      90.00000000     360.00000000      43.99065889       1.47059897
       6.00000000      90.00000000     360.00000000      43.99069766       1.47060026
       6.10000000      90.00000000     360.00000000      43.99073644       1.47060156
       6.20000000      90.00000000     360.00000000      43.99077523       1.47060286
       6.30000000      90.00000000     360.00000000      43.99081401       1.47060415
       6.40000000      90.00000000     360.00000000      43.99085281       1.47060545
       6.50000000      90.00000000     360.00000000      43.99089160       1.47060675
       6.60000000      90.00000000     360.00000000      43.99093041       1.47060804
       6.70000000      90.00000000     360.00000000      43.99096921       1.47060934
       6.80000000      90.00000000     360.00000000      43.99100802       1.47061064
       6.90000000      90.00000000     360.00000000      43.99104684       1.47061194
       7.00000000      90.00000000     360.00000000      43.99108566       1.47061323
       7.10000000      90.00000000     360.00000000      43.99112449       1.47061453
       7.20000000      90.00000000     360.00000000      43.99116332       1.47061583
       7.30000000      90.00000000     360.00000000      43.99120215       1.47061713
       7.40000000      90.00000000     360.00000000      43.99124099       1.47061843
       7.50000000      90.00000000     360.00000000      43.99127983       1.47061972
       7.60000000      90.00000000     360.00000000      43.99131868       1.47062102
       7.70000000      90.00000000     360.00000000      43.99135754       1.47062232
       7.80000000      90.00000000     360.00000000      43.99139639       1.47062362
       7.90000000      90.00000000     360.00000000      43.99143526       1.47062492
       8.00000000      90.00000000     360.00000000      43.99147412       1.47062622
       8.10000000      90.00000000     360.00000000      43.99151300       1.47062752
       8.20000000      90.00000000     360.00000000      43.99155187       1.47062882
       8.30000000      90.00000000     360.00000000      43.99159075       1.47063012
       8.40000000      90.00000000     360.00000000      43.99162964       1.47063142
       8.50000000      90.00000000     360.00000000      43.99166853       1.47063272
       8.60000000      90.00000000     360.00000000      43.99170743       1.47063402
       8.70000000      90.00000000     360.00000000      43.99174633       1.47063532
       8.80000000      90.00000000     360.00000000      43.99178523       1.47063662
       8.90000000      90.00000000     360.00000000      43.99182414       1.47063792
       9.00000000      90.00000000     360.00000000      43.99186305       1.47063922
       9.10000000      90.00000000     360.00000000      43.99190197       1.47064052
       9.20000000      90.00000000     360.00000000      43.99194090       1.47064182
       9.30000000      90.00000000     360.00000000      43.99197982       1.47064313
       9.40000000      90.00000000     360.00000000      43.99201876       1.47064443
       9.50000000      90.00000000     360.00000000      43.99205769       1.47064573
       9.60000000      90.00000000     360.00000000      43.99209664       1.47064703
       9.70000000      90.00000000     360.00000000      43.99213558       1.47064833
       9.80000000      90.00000000     360.00000000      43.99217453       1.47064963
       9.90000000      90.00000000     360.00000000      43.99221349       1.47065094
      10.00000000      90.00000000     360.00000000      43.99225245       1.47065224
      10.10000000      90.00000000     360.00000000      43.99229142       1.47065354
      10.20000000      90.00000000     360.00000000      43.99233039       1.47065484
      10.30000000      90.00000000     360.00000000      43.99236936       1.47065615
      10.40000000      90.00000000     360.00000000      43.99240834       1.47065745
      10.50000000      90.00000000     360.00000000      43.99244733       1.47065875
      10.60000000      90.00000000     360.00000000      43.99248631       1.47066006
      10.70000000      90.00000000     360.00000000      43.99252531       1.47066136
      10.80000000      90.00000000     360.00000000      43.99256431       1.47066266
      10.90000000      90.00000000     360.00000000      43.99260331       1.47066397
      11.00000000      90.00000000     360.00000000      43.99264232       1.47066527
      11.10000000      90.00000000     360.00000000      43.99268133       1.47066658
      11.20000000      90.00000000     360.00000000      43.99272035       1.47066788
      11.30000000      90.00000000     360.00000000      43.99275937       1.47066918
      11.40000000      90.00000000     360.00000000      43.99279839       1.47067049
      11.50000000      90.00000000     360.00000000      43.99283742       1.47067179
      11.60000000      90.00000000     360.00000000      43.99287646       1.47067310
      11.70000000      90.00000000     360.00000000      43.99291550       1.47067440
      11.80000000      90.00000000     360.00000000      43.99295454       1.47067571
      11.90000000      90.00000000     360.00000000      43.99299359       1.47067702
      12.00000000      90.00000000     360.00000000      43.99303265       1.47067832
      12.10000000      90.00000000     360.00000000      43.99307171       1.47067963
      12.20000000      90.00000000     360.00000000      43.99311077       1.47068093
      12.30000000      90.00000000     360.00000000      43.99314984       1.47068224
      12.40000000      90.00000000     360.00000000      43.99318891       1.47068354
      12.50000000      90.00000000     360.00000000      43.99322799       1.47068485
      12.60000000      90.00000000     360.00000000      43.99326707       1.47068616
      12.70000000      90.00000000     360.00000000      43.99330616       1.47068746
      12.80000000      90.00000000     360.00000000      43.99334525       1.47068877
      12.90000000      90.00000000     360.00000000      43.99338435       1.47069008
      13.00000000      90.00000000     360.00000000      43.99342345       1.47069139
      13.10000000      90.00000000     360.00000000      43.99346256       1.47069269
      13.20000000      90.00000000     360.00000000      43.99350167       1.47069400
      13.30000000      90.00000000     360.00000000      43.99354078       1.47069531
      13.40000000      90.00000000     360.00000000      43.99357990       1.47069662
      13.50000000      90.00000000     360.00000000      43.99361903       1.47069792
      13.60000000      90.00000000     360.00000000      43.99365816       1.47069923
      13.70000000      90.00000000     360.00000000      43.99369729       1.47070054
      13.80000000      90.00000000     360.00000000      43.99373643       1.47070185
      13.90000000      90.00000000     360.00000000      43.99377558       1.47070316
      14.00000000      90.00000000     360.00000000      43.99381472       1.47070447
      14.10000000      90.00000000     360.00000000      43.99385388       1.47070577
      14.20000000      90.00000000     360.00000000      43.99389303       1.47070708
      14.30000000      90.00000000     360.00000000      43.99393220       1.47070839
      14.40000000      90.00000000     360.00000000      43.99397136       1.47070970
      14.50000000      90.00000000     360.00000000      43.99401054       1.47071101
      14.60000000      90.00000000     360.00000000      43.99404971       1.47071232
      14.70000000      90.00000000     360.00000000      43.99408889       1.47071363
      14.80000000      90.00000000     360.00000000      43.99412808       1.47071494
      14.90000000      90.00000000     360.00000000      43.99416727       1.47071625
      15.00000000      90.00000000     360.00000000      43.99420647       1.47071756
      15.10000000      90.00000000     360.00000000      43.99424567       1.47071887
      15.20000000      90.00000000     360.00000000      43.99428487       1.47072018
      15.30000000      90.00000000     360.00000000      43.99432408       1.47072149
      15.40000000      90.00000000     360.00000000      43.99436330       1.47072280
      15.50000000      90.00000000     360.00000000      43.99440252       1.47072412
      15.60000000      90.00000000     360.00000000      43.99444174       1.47072543
      15.70000000      90.00000000     360.00000000      43.99448097       1.47072674
      15.80000000      90.00000000     360.00000000      43.99452020       1.47072805
      15.90000000      90.00000000     360.00000000      43.99455944       1.47072936
      16.00000000      90.00000000     360.00000000      43.99459868       1.47073067
      16.10000000      90.00000000     360.00000000      43.99463793       1.47073198
      16.20000000      90.00000000     360.00000000      43.99467718       1.47073330
      16.30000000      90.00000000     360.00000000      43.99471644       1.47073461
      16.40000000      90.00000000     360.00000000      43.99475570       1.47073592
      16.50000000      90.00000000     360.00000000      43.99479497       1.47073723
      16.60000000      90.00000000     360.00000000      43.99483424       1.47073855
      16.70000000      90.00000000     360.00000000      43.99487351       1.47073986
      16.80000000      90.00000000     360.00000000      43.99491279       1.47074117
      16.90000000      90.00000000     360.00000000      43.99495208       1.47074249
      17.00000000      90.00000000     360.00000000      43.99499137       1.47074380
      17.10000000      90.00000000     360.00000000      43.99503066       1.47074511
      17.20000000      90.00000000     360.00000000      43.99506996       1.47074643
      17.30000000      90.00000000     360.00000000      43.99510927       1.47074774
      17.40000000      90.00000000     360.00000000      43.99514858       1.47074906
      17.50000000      90.00000000     360.00000000      43.99518789       1.47075037
      17.60000000      90.00000000     360.00000000      43.99522721       1.47075168
      17.70000000      90.00000000     360.00000000      43.99526653       1.47075300
      17.80000000      90.00000000     360.00000000      43.99530586       1.47075431
      17.90000000      90.00000000     360.00000000      43.99534519       1.47075563
      18.00000000      90.00000000     360.00000000      43.99538453       1.47075694
      18.10000000      90.00000000     360.00000000      43.99542387       1.47075826
      18.20000000      90.00000000     360.00000000      43.99546322       1.47075957
      18.30000000      90.00000000     360.00000000      43.99550257       1.47076089
      18.40000000      90.00000000     360.00000000      43.99554193       1.47076221
      18.50000000      90.00000000     360.00000000      43.99558129       1.47076352
      18.60000000      90.00000000     360.00000000      43.99562066       1.47076484
      18.70000000      90.00000000     360.00000000      43.99566003       1.47076615
      18.80000000      90.00000000     360.00000000      43.99569940       1.47076747
      18.90000000      90.00000000     360.00000000      43.99573878       1.47076879
      19.00000000      90.00000000     360.00000000      43.99577817       1.47077010
      19.10000000      90.00000000     360.00000000      43.99581756       1.47077142
      19.20000000      90.00000000     360.00000000      43.99585695       1.47077274
      19.30000000      90.00000000     360.00000000      43.99589635       1.47077405
      19.40000000      90.00000000     360.00000000      43.99593575       1.47077537
      19.50000000      90.00000000     360.00000000      43.99597516       1.47077669
      19.60000000      90.00000000     360.00000000      43.99601458       1.47077801
      19.70000000      90.00000000     360.00000000      43.99605399       1.47077932
      19.80000000      90.00000000     360.00000000      43.99609342       1.47078064
      19.90000000      90.00000000     360.00000000      43.99613284       1.47078196
      20.00000000      90.00000000     360.00000000      43.99617228       1.47078328
      20.10000000      90.00000000     360.00000000      43.99621171       1.47078460
      20.20000000      90.00000000     360.00000000      43.99625116       1.47078591
      20.30000000      90.00000000     360.00000000      43.99629060       1.47078723
      20.40000000      90.00000000     360.00000000      43.99633005       1.47078855
      20.50000000      90.00000000     360.00000000      43.99636951       1.47078987
      20.60000000      90.00000000     360.00000000      43.99640897       1.47079119
      20.70000000      90.00000000     360.00000000      43.99644844       1.47079251
      20.80000000      90.00000000     360.00000000      43.99648791       1.47079383
      20.90000000      90.00000000     360.00000000      43.99652738       1.47079515
      21.00000000      90.00000000     360.00000000      43.99656686       1.47079647
      21.10000000      90.00000000     360.00000000      43.99660635       1.47079779
      21.20000000      90.00000000     360.00000000      43.99664584       1.47079911
      21.30000000      90.00000000     360.00000000      43.99668533       1.47080043
      21.40000000      90.00000000     360.00000000      43.99672483       1.47080175
      21.50000000      90.00000000     360.00000000      43.99676433       1.47080307
      21.60000000      90.00000000     360.00000000      43.99680384       1.47080439
      21.70000000      90.00000000     360.00000000      43.99684336       1.47080571
      21.80000000      90.00000000     360.00000000      43.99688287       1.47080703
      21.90000000      90.00000000     360.00000000      43.99692240       1.47080835
      22.00000000      90.00000000     360.00000000      43.99696192       1.47080968
      22.10000000      90.00000000     360.00000000      43.99700146       1.47081100
      22.20000000      90.00000000     360.00000000      43.99704099       1.47081232
      22.30000000      90.00000000     360.00000000      43.99708054       1.47081364
      22.40000000      90.00000000     360.00000000      43.99712008       1.47081496
      22.50000000      90.00000000     360.00000000      43.99715963       1.47081629
      22.60000000      90.00000000     360.00000000      43.99719919       1.47081761
      22.70000000      90.00000000     360.00000000      43.99723875       1.47081893
      22.80000000      90.00000000     360.00000000      43.99727832       1.47082025
      22.90000000      90.00000000     360.00000000      43.99731789       1.47082158
      23.00000000      90.00000000     360.00000000      43.99735746       1.47082290
