 # applied field (T), theta (degree), phi (degree), abs [muB/unitcell], abs [T]
       0.00000000       0.00000000       0.00000000      35.70310697       1.19354776
       0.10000000       0.39845938     360.00000000      35.70310127       1.19354757
       0.20000000       0.79691833     360.00000000      35.70308369       1.19354698
       0.30000000       1.19537843     360.00000000      35.70305437       1.19354600
       0.40000000       1.65065774     360.00000000      35.70300542       1.19354436
       0.50000000       2.04912173     360.00000000      35.70295074       1.19354253
       0.60000000       2.44758828     360.00000000      35.70288437       1.19354031
       0.70000000       2.84605787     360.00000000      35.70280633       1.19353771
       0.80000000       3.24453101     360.00000000      35.70271665       1.19353471
       0.90000000       3.64300819     360.00000000      35.70261535       1.19353132
       1.00000000       4.09831089     360.00000000      35.70248271       1.19352689
       1.10000000       4.49679842     360.00000000      35.70235636       1.19352266
       1.20000000       4.89529154     360.00000000      35.70221850       1.19351805
       1.30000000       5.29379073     360.00000000      35.70206918       1.19351306
       1.40000000       5.69229650     360.00000000      35.70190843       1.19350769
       1.50000000       6.09080932     360.00000000      35.70173631       1.19350194
       1.60000000       6.54615689     360.00000000      35.70152145       1.19349475
       1.70000000       6.94468657     360.00000000      35.70132488       1.19348818
       1.80000000       7.34322486     360.00000000      35.70111709       1.19348123
       1.90000000       7.74177224     360.00000000      35.70089817       1.19347392
       2.00000000       8.14032920     360.00000000      35.70066817       1.19346623
       2.10000000       8.53889622     360.00000000      35.70042717       1.19345817
       2.20000000       8.99430999     360.00000000      35.70013249       1.19344832
       2.30000000       9.39290032     360.00000000      35.69986789       1.19343947
       2.40000000       9.79150225     360.00000000      35.69959252       1.19343027
       2.50000000      10.19011624     360.00000000      35.69930647       1.19342071
       2.60000000      10.64558665     360.00000000      35.69895964       1.19340911
       2.70000000      11.04422826     360.00000000      35.69865072       1.19339878
       2.80000000      11.44288345     360.00000000      35.69833138       1.19338811
       2.90000000      11.84155270     360.00000000      35.69800173       1.19337709
       3.00000000      12.29708927     360.00000000      35.69760451       1.19336381
       3.10000000      12.69579039     360.00000000      35.69725284       1.19335205
       3.20000000      13.09450707     360.00000000      35.69689116       1.19333996
       3.30000000      13.49323976     360.00000000      35.69651960       1.19332754
       3.40000000      13.94885191     360.00000000      35.69607397       1.19331264
       3.50000000      14.34762067     360.00000000      35.69568134       1.19329952
       3.60000000      14.74640692     360.00000000      35.69527918       1.19328607
       3.70000000      15.20208263     360.00000000      35.69479825       1.19327000
       3.80000000      15.60090808     360.00000000      35.69437581       1.19325588
       3.90000000      15.99975247     360.00000000      35.69394423       1.19324145
       4.00000000      16.45549700     360.00000000      35.69342939       1.19322424
       4.10000000      16.85438369     360.00000000      35.69297839       1.19320916
       4.20000000      17.25329072     360.00000000      35.69251867       1.19319379
       4.30000000      17.70910925     360.00000000      35.69197141       1.19317550
       4.40000000      18.10806163     360.00000000      35.69149320       1.19315951
       4.50000000      18.50703576     360.00000000      35.69100670       1.19314325
       4.60000000      18.96293338     360.00000000      35.69042864       1.19312392
       4.70000000      19.36195583     360.00000000      35.68992464       1.19310707
       4.80000000      19.81791034     360.00000000      35.68932645       1.19308708
       4.90000000      20.21698314     360.00000000      35.68880565       1.19306967
       5.00000000      20.67299686     360.00000000      35.68818817       1.19304902
       5.10000000      21.07212200     360.00000000      35.68765130       1.19303108
       5.20000000      21.52819723     360.00000000      35.68701538       1.19300982
       5.30000000      21.92737670     360.00000000      35.68646320       1.19299136
       5.40000000      22.38351572     360.00000000      35.68580973       1.19296951
       5.50000000      22.78275149     360.00000000      35.68524303       1.19295057
       5.60000000      23.23895656     360.00000000      35.68457291       1.19292817
       5.70000000      23.63825058     360.00000000      35.68399248       1.19290876
       5.80000000      24.09452395     360.00000000      35.68330665       1.19288584
       5.90000000      24.55083482     360.00000000      35.68261271       1.19286264
       6.00000000      24.95022207     360.00000000      35.68201274       1.19284258
       6.10000000      25.40660466     360.00000000      35.68130457       1.19281891
       6.20000000      25.86302656     360.00000000      35.68058909       1.19279499
       6.30000000      26.26251156     360.00000000      35.67997158       1.19277434
       6.40000000      26.71900856     360.00000000      35.67924339       1.19275000
       6.50000000      27.17554667     360.00000000      35.67850871       1.19272544
       6.60000000      27.57513387     360.00000000      35.67787573       1.19270428
       6.70000000      28.03175039     360.00000000      35.67712990       1.19267935
       6.80000000      28.48840977     360.00000000      35.67637843       1.19265423
       6.90000000      28.94511262     360.00000000      35.67562161       1.19262893
       7.00000000      29.40185953     360.00000000      35.67485974       1.19260346
       7.10000000      29.85865111     360.00000000      35.67409312       1.19257783
       7.20000000      30.25846094     360.00000000      35.67343488       1.19255582
       7.30000000      30.71533746     360.00000000      35.67266037       1.19252993
       7.40000000      31.17226031     360.00000000      35.67188198       1.19250391
       7.50000000      31.62923004     360.00000000      35.67110000       1.19247777
       7.60000000      32.08624722     360.00000000      35.67031474       1.19245152
       7.70000000      32.54331239     360.00000000      35.66952650       1.19242517
       7.80000000      33.00042612     360.00000000      35.66873558       1.19239873
       7.90000000      33.51466033     360.00000000      35.66782529       1.19236830
       8.00000000      33.97187938     360.00000000      35.66702948       1.19234169
       8.10000000      34.42914863     360.00000000      35.66623194       1.19231503
       8.20000000      34.88646858     360.00000000      35.66543295       1.19228832
       8.30000000      35.34383974     360.00000000      35.66463283       1.19226157
       8.40000000      35.85836876     360.00000000      35.66371300       1.19223082
       8.50000000      36.31585077     360.00000000      35.66291124       1.19220402
       8.60000000      36.77338549     360.00000000      35.66210925       1.19217721
       8.70000000      37.28810158     360.00000000      35.66118783       1.19214641
       8.80000000      37.74575023     360.00000000      35.66038613       1.19211961
       8.90000000      38.26059654     360.00000000      35.65946537       1.19208883
       9.00000000      38.71836109     360.00000000      35.65866523       1.19206208
       9.10000000      39.23333978     360.00000000      35.65774654       1.19203137
       9.20000000      39.69122208     360.00000000      35.65694921       1.19200471
       9.30000000      40.20633517     360.00000000      35.65603398       1.19197412
       9.40000000      40.72152044     360.00000000      35.65512103       1.19194360
       9.50000000      41.17958630     360.00000000      35.65433020       1.19191716
       9.60000000      41.69490876     360.00000000      35.65342270       1.19188682
       9.70000000      42.21030476     360.00000000      35.65251852       1.19185659
       9.80000000      42.72577473     360.00000000      35.65161796       1.19182649
       9.90000000      43.24131906     360.00000000      35.65072138       1.19179652
      10.00000000      43.75693812     360.00000000      35.64982906       1.19176669
      10.10000000      44.27263225     360.00000000      35.64894132       1.19173701
      10.20000000      44.78840173     360.00000000      35.64805843       1.19170749
      10.30000000      45.36150916     360.00000000      35.64706369       1.19167424
      10.40000000      45.87743906     360.00000000      35.64619177       1.19164509
      10.50000000      46.39344502     360.00000000      35.64532549       1.19161613
      10.60000000      46.96681749     360.00000000      35.64434959       1.19158351
      10.70000000      47.54028535     360.00000000      35.64338089       1.19155113
      10.80000000      48.05653826     360.00000000      35.64253389       1.19152281
      10.90000000      48.63018705     360.00000000      35.64157965       1.19149091
      11.00000000      49.20393134     360.00000000      35.64063326       1.19145927
      11.10000000      49.77777102     360.00000000      35.63969487       1.19142790
      11.20000000      50.35170594     360.00000000      35.63876463       1.19139680
      11.30000000      50.92573586     360.00000000      35.63784266       1.19136598
      11.40000000      51.49986047     360.00000000      35.63692905       1.19133544
      11.50000000      52.07407937     360.00000000      35.63602387       1.19130518
      11.60000000      52.70578277     360.00000000      35.63501847       1.19127157
      11.70000000      53.33760021     360.00000000      35.63402312       1.19123830
      11.80000000      53.91211843     360.00000000      35.63314495       1.19120894
      11.90000000      54.54415049     360.00000000      35.63216898       1.19117631
      12.00000000      55.17629373     360.00000000      35.63120310       1.19114402
      12.10000000      55.80854687     360.00000000      35.63024731       1.19111207
      12.20000000      56.49836322     360.00000000      35.62919776       1.19107699
      12.30000000      57.13084214     360.00000000      35.62826290       1.19104573
      12.40000000      57.82090224     360.00000000      35.62723592       1.19101140
      12.50000000      58.51108651     360.00000000      35.62622066       1.19097746
      12.60000000      59.20139246     360.00000000      35.62521709       1.19094391
      12.70000000      59.89181743     360.00000000      35.62422524       1.19091076
      12.80000000      60.63987764     360.00000000      35.62314667       1.19087470
      12.90000000      61.38807185     360.00000000      35.62208186       1.19083910
      13.00000000      62.13639618     360.00000000      35.62103098       1.19080397
      13.10000000      62.94239800     360.00000000      35.61989889       1.19076613
      13.20000000      63.69098031     360.00000000      35.61887782       1.19073199
      13.30000000      64.55482417     360.00000000      35.61768554       1.19069213
      13.40000000      65.36123830     360.00000000      35.61660546       1.19065603
      13.50000000      66.22537224     360.00000000      35.61545392       1.19061753
      13.60000000      67.14725030     360.00000000      35.61423705       1.19057685
      13.70000000      68.06928298     360.00000000      35.61304848       1.19053712
      13.80000000      68.99146359     360.00000000      35.61189025       1.19049840
      13.90000000      70.02905252     360.00000000      35.61059917       1.19045524
      14.00000000      71.06681545     360.00000000      35.60935322       1.19041359
      14.10000000      72.22005395     360.00000000      35.60800231       1.19036843
      14.20000000      73.37349231     360.00000000      35.60671822       1.19032550
      14.30000000      74.64247534     360.00000000      35.60536808       1.19028036
      14.40000000      76.02706143     360.00000000      35.60398533       1.19023414
      14.50000000      77.52731130     360.00000000      35.60261027       1.19018817
      14.60000000      79.25871501     360.00000000      35.60118709       1.19014060
      14.70000000      81.33687204     360.00000000      35.59973467       1.19009204
      14.80000000      84.05072867     360.00000000      35.59829237       1.19004382
      14.90000000      90.00000000     360.00000000      35.59702028       1.19000130
      15.00000000      90.00000000     360.00000000      35.59725224       1.19000905
      15.10000000      90.00000000     360.00000000      35.59748187       1.19001673
      15.20000000      90.00000000     360.00000000      35.59771150       1.19002441
      15.30000000      90.00000000     360.00000000      35.59794111       1.19003208
      15.40000000      90.00000000     360.00000000      35.59817071       1.19003976
      15.50000000      90.00000000     360.00000000      35.59840030       1.19004743
      15.60000000      90.00000000     360.00000000      35.59862987       1.19005511
      15.70000000      90.00000000     360.00000000      35.59885943       1.19006278
      15.80000000      90.00000000     360.00000000      35.59908897       1.19007046
      15.90000000      90.00000000     360.00000000      35.59931850       1.19007813
      16.00000000      90.00000000     360.00000000      35.59954802       1.19008580
      16.10000000      90.00000000     360.00000000      35.59977752       1.19009347
      16.20000000      90.00000000     360.00000000      35.60000701       1.19010115
      16.30000000      90.00000000     360.00000000      35.60023649       1.19010882
      16.40000000      90.00000000     360.00000000      35.60046595       1.19011649
      16.50000000      90.00000000     360.00000000      35.60069540       1.19012416
      16.60000000      90.00000000     360.00000000      35.60092484       1.19013183
      16.70000000      90.00000000     360.00000000      35.60115426       1.19013950
      16.80000000      90.00000000     360.00000000      35.60138366       1.19014717
      16.90000000      90.00000000     360.00000000      35.60161306       1.19015483
      17.00000000      90.00000000     360.00000000      35.60184244       1.19016250
      17.10000000      90.00000000     360.00000000      35.60207180       1.19017017
      17.20000000      90.00000000     360.00000000      35.60230116       1.19017784
      17.30000000      90.00000000     360.00000000      35.60253049       1.19018550
      17.40000000      90.00000000     360.00000000      35.60275982       1.19019317
      17.50000000      90.00000000     360.00000000      35.60298913       1.19020084
      17.60000000      90.00000000     360.00000000      35.60321842       1.19020850
      17.70000000      90.00000000     360.00000000      35.60344770       1.19021617
      17.80000000      90.00000000     360.00000000      35.60367697       1.19022383
      17.90000000      90.00000000     360.00000000      35.60390622       1.19023149
      18.00000000      90.00000000     360.00000000      35.60413546       1.19023916
      18.10000000      90.00000000     360.00000000      35.60436469       1.19024682
      18.20000000      90.00000000     360.00000000      35.60459390       1.19025448
      18.30000000      90.00000000     360.00000000      35.60482309       1.19026215
      18.40000000      90.00000000     360.00000000      35.60505227       1.19026981
      18.50000000      90.00000000     360.00000000      35.60528144       1.19027747
      18.60000000      90.00000000     360.00000000      35.60551059       1.19028513
      18.70000000      90.00000000     360.00000000      35.60573973       1.19029279
      18.80000000      90.00000000     360.00000000      35.60596886       1.19030045
      18.90000000      90.00000000     360.00000000      35.60619797       1.19030811
      19.00000000      90.00000000     360.00000000      35.60642706       1.19031577
      19.10000000      90.00000000     360.00000000      35.60665614       1.19032342
      19.20000000      90.00000000     360.00000000      35.60688521       1.19033108
      19.30000000      90.00000000     360.00000000      35.60711426       1.19033874
      19.40000000      90.00000000     360.00000000      35.60734330       1.19034640
      19.50000000      90.00000000     360.00000000      35.60757232       1.19035405
      19.60000000      90.00000000     360.00000000      35.60780133       1.19036171
      19.70000000      90.00000000     360.00000000      35.60803032       1.19036936
      19.80000000      90.00000000     360.00000000      35.60825930       1.19037702
      19.90000000      90.00000000     360.00000000      35.60848826       1.19038467
      20.00000000      90.00000000     360.00000000      35.60871721       1.19039233
      20.10000000      90.00000000     360.00000000      35.60894615       1.19039998
      20.20000000      90.00000000     360.00000000      35.60917507       1.19040763
      20.30000000      90.00000000     360.00000000      35.60940397       1.19041528
      20.40000000      90.00000000     360.00000000      35.60963286       1.19042294
      20.50000000      90.00000000     360.00000000      35.60986174       1.19043059
      20.60000000      90.00000000     360.00000000      35.61009060       1.19043824
      20.70000000      90.00000000     360.00000000      35.61031945       1.19044589
      20.80000000      90.00000000     360.00000000      35.61054828       1.19045354
      20.90000000      90.00000000     360.00000000      35.61077710       1.19046119
      21.00000000      90.00000000     360.00000000      35.61100590       1.19046884
      21.10000000      90.00000000     360.00000000      35.61123469       1.19047648
      21.20000000      90.00000000     360.00000000      35.61146346       1.19048413
      21.30000000      90.00000000     360.00000000      35.61169222       1.19049178
      21.40000000      90.00000000     360.00000000      35.61192096       1.19049943
      21.50000000      90.00000000     360.00000000      35.61214969       1.19050707
      21.60000000      90.00000000     360.00000000      35.61237840       1.19051472
      21.70000000      90.00000000     360.00000000      35.61260710       1.19052236
      21.80000000      90.00000000     360.00000000      35.61283578       1.19053001
      21.90000000      90.00000000     360.00000000      35.61306445       1.19053765
      22.00000000      90.00000000     360.00000000      35.61329310       1.19054530
      22.10000000      90.00000000     360.00000000      35.61352174       1.19055294
      22.20000000      90.00000000     360.00000000      35.61375036       1.19056058
      22.30000000      90.00000000     360.00000000      35.61397897       1.19056822
      22.40000000      90.00000000     360.00000000      35.61420756       1.19057587
      22.50000000      90.00000000     360.00000000      35.61443613       1.19058351
      22.60000000      90.00000000     360.00000000      35.61466469       1.19059115
      22.70000000      90.00000000     360.00000000      35.61489324       1.19059879
      22.80000000      90.00000000     360.00000000      35.61512177       1.19060643
      22.90000000      90.00000000     360.00000000      35.61535028       1.19061407
      23.00000000      90.00000000     360.00000000      35.61557877       1.19062171
