 # applied field (T), theta (degree), phi (degree), abs [muB/unitcell], abs [T]
       0.00000000       0.00000000       0.00000000      39.16270480       1.31815143
       0.10000000       0.28406574     360.00000000      39.16270052       1.31815128
       0.20000000       0.62480119     360.00000000      39.16268360       1.31815071
       0.30000000       0.90886782     360.00000000      39.16266027       1.31814993
       0.40000000       1.19293527     360.00000000      39.16262839       1.31814885
       0.50000000       1.47700382     360.00000000      39.16258796       1.31814749
       0.60000000       1.81774416     360.00000000      39.16252679       1.31814543
       0.70000000       2.10181608     360.00000000      39.16246738       1.31814343
       0.80000000       2.38588995     360.00000000      39.16239946       1.31814115
       0.90000000       2.72663790     360.00000000      39.16230465       1.31813796
       1.00000000       3.01071706     360.00000000      39.16221783       1.31813503
       1.10000000       3.29479903     360.00000000      39.16212254       1.31813183
       1.20000000       3.63555794     360.00000000      39.16199426       1.31812751
       1.30000000       3.91964708     360.00000000      39.16188020       1.31812367
       1.40000000       4.20373989     360.00000000      39.16175773       1.31811955
       1.50000000       4.54451306     360.00000000      39.16159622       1.31811411
       1.60000000       4.82861491     360.00000000      39.16145513       1.31810936
       1.70000000       5.11272127     360.00000000      39.16130572       1.31810433
       1.80000000       5.39683240     360.00000000      39.16114802       1.31809903
       1.90000000       5.73762923     360.00000000      39.16094345       1.31809214
       2.00000000       6.02175184     360.00000000      39.16076739       1.31808622
       2.10000000       6.30588006     360.00000000      39.16058313       1.31808001
       2.20000000       6.64669868     360.00000000      39.16034614       1.31807204
       2.30000000       6.93084021     360.00000000      39.16014376       1.31806523
       2.40000000       7.21498818     360.00000000      39.15993331       1.31805814
       2.50000000       7.55583182     360.00000000      39.15966436       1.31804909
       2.60000000       7.83999493     360.00000000      39.15943605       1.31804140
       2.70000000       8.12416529     360.00000000      39.15919981       1.31803345
       2.80000000       8.46503715     360.00000000      39.15889940       1.31802334
       2.90000000       8.74922446     360.00000000      39.15864562       1.31801480
       3.00000000       9.03341984     360.00000000      39.15838404       1.31800600
       3.10000000       9.37432308     360.00000000      39.15805275       1.31799485
       3.20000000       9.65853719     360.00000000      39.15777399       1.31798546
       3.30000000       9.94276018     360.00000000      39.15748759       1.31797582
       3.40000000      10.28369792     360.00000000      39.15712604       1.31796365
       3.50000000      10.56794141     360.00000000      39.15682283       1.31795345
       3.60000000      10.90890471     360.00000000      39.15644081       1.31794059
       3.70000000      11.19316990     360.00000000      39.15612106       1.31792983
       3.80000000      11.47744531     360.00000000      39.15579398       1.31791882
       3.90000000      11.81844830     360.00000000      39.15538290       1.31790498
       4.00000000      12.10274714     360.00000000      39.15503972       1.31789343
       4.10000000      12.38705696     360.00000000      39.15468942       1.31788164
       4.20000000      12.72810267     360.00000000      39.15425006       1.31786685
       4.30000000      13.01243762     360.00000000      39.15388412       1.31785454
       4.40000000      13.35351448     360.00000000      39.15342572       1.31783911
       4.50000000      13.63787573     360.00000000      39.15304447       1.31782627
       4.60000000      13.92224924     360.00000000      39.15265646       1.31781322
       4.70000000      14.26337380     360.00000000      39.15217123       1.31779688
       4.80000000      14.54777527     360.00000000      39.15176843       1.31778333
       4.90000000      14.88893436     360.00000000      39.15126519       1.31776639
       5.00000000      15.17336490     360.00000000      39.15084796       1.31775234
       5.10000000      15.51455988     360.00000000      39.15032718       1.31773482
       5.20000000      15.79902060     360.00000000      39.14989590       1.31772030
       5.30000000      16.08349532     360.00000000      39.14945847       1.31770558
       5.40000000      16.42474480     360.00000000      39.14891311       1.31768722
       5.50000000      16.70925128     360.00000000      39.14846220       1.31767204
       5.60000000      17.05053989     360.00000000      39.14790046       1.31765314
       5.70000000      17.33507921     360.00000000      39.14743649       1.31763752
       5.80000000      17.67640824     360.00000000      39.14685888       1.31761808
       5.90000000      17.96098145     360.00000000      39.14638226       1.31760204
       6.00000000      18.30235218     360.00000000      39.14578929       1.31758208
       6.10000000      18.58696032     360.00000000      39.14530047       1.31756562
       6.20000000      18.92837399     360.00000000      39.14469267       1.31754517
       6.30000000      19.21301809     360.00000000      39.14419209       1.31752832
       6.40000000      19.55447594     360.00000000      39.14356999       1.31750738
       6.50000000      19.83915700     360.00000000      39.14305810       1.31749015
       6.60000000      20.18066024     360.00000000      39.14242227       1.31746875
       6.70000000      20.46537924     360.00000000      39.14189953       1.31745115
       6.80000000      20.80692907     360.00000000      39.14125052       1.31742931
       6.90000000      21.14850492     360.00000000      39.14059445       1.31740723
       7.00000000      21.43328457     360.00000000      39.14005579       1.31738910
       7.10000000      21.77490881     360.00000000      39.13938745       1.31736660
       7.20000000      22.05972885     360.00000000      39.13883916       1.31734815
       7.30000000      22.40140261     360.00000000      39.13815911       1.31732526
       7.40000000      22.74310397     360.00000000      39.13747284       1.31730216
       7.50000000      23.02798836     360.00000000      39.13691055       1.31728323
       7.60000000      23.36974096     360.00000000      39.13621350       1.31725977
       7.70000000      23.71152210     360.00000000      39.13551073       1.31723612
       7.80000000      23.99647298     360.00000000      39.13493565       1.31721676
       7.90000000      24.33830702     360.00000000      39.13422306       1.31719278
       8.00000000      24.68017049     360.00000000      39.13350526       1.31716862
       8.10000000      24.96518995     360.00000000      39.13291861       1.31714887
       8.20000000      25.30710793     360.00000000      39.13219195       1.31712441
       8.30000000      25.64905622     360.00000000      39.13146063       1.31709980
       8.40000000      25.93414626     360.00000000      39.13086363       1.31707970
       8.50000000      26.27615061     360.00000000      39.13012442       1.31705482
       8.60000000      26.61818609     360.00000000      39.12938107       1.31702980
       8.70000000      26.96025300     360.00000000      39.12863378       1.31700465
       8.80000000      27.24544169     360.00000000      39.12802475       1.31698415
       8.90000000      27.58756668     360.00000000      39.12727090       1.31695878
       9.00000000      27.92972388     360.00000000      39.12651365       1.31693329
       9.10000000      28.27191357     360.00000000      39.12575318       1.31690770
       9.20000000      28.61413603     360.00000000      39.12498969       1.31688200
       9.30000000      28.89945395     360.00000000      39.12436877       1.31686110
       9.40000000      29.24173685     360.00000000      39.12360043       1.31683524
       9.50000000      29.58405326     360.00000000      39.12282960       1.31680929
       9.60000000      29.92640343     360.00000000      39.12205650       1.31678327
       9.70000000      30.26878759     360.00000000      39.12128130       1.31675718
       9.80000000      30.61120601     360.00000000      39.12050420       1.31673102
       9.90000000      30.95365891     360.00000000      39.11972539       1.31670481
      10.00000000      31.29614654     360.00000000      39.11894507       1.31667855
      10.10000000      31.63866912     360.00000000      39.11816342       1.31665224
      10.20000000      31.98122689     360.00000000      39.11738064       1.31662589
      10.30000000      32.32382006     360.00000000      39.11659690       1.31659951
      10.40000000      32.66644886     360.00000000      39.11581241       1.31657311
      10.50000000      33.00911349     360.00000000      39.11502736       1.31654668
      10.60000000      33.35181418     360.00000000      39.11424192       1.31652025
      10.70000000      33.69455111     360.00000000      39.11345628       1.31649380
      10.80000000      34.03732450     360.00000000      39.11267064       1.31646736
      10.90000000      34.38013453     360.00000000      39.11188517       1.31644092
      11.00000000      34.72298140     360.00000000      39.11110006       1.31641450
      11.10000000      35.12291496     360.00000000      39.11016417       1.31638300
      11.20000000      35.46584264     360.00000000      39.10938030       1.31635661
      11.30000000      35.80880773     360.00000000      39.10859735       1.31633026
      11.40000000      36.15181040     360.00000000      39.10781551       1.31630394
      11.50000000      36.49485081     360.00000000      39.10703496       1.31627767
      11.60000000      36.89501323     360.00000000      39.10610472       1.31624636
      11.70000000      37.23813635     360.00000000      39.10532738       1.31622020
      11.80000000      37.58129771     360.00000000      39.10455187       1.31619409
      11.90000000      37.98160306     360.00000000      39.10362771       1.31616299
      12.00000000      38.32484814     360.00000000      39.10285658       1.31613703
      12.10000000      38.66813189     360.00000000      39.10208781       1.31611116
      12.20000000      39.06858184     360.00000000      39.10117169       1.31608032
      12.30000000      39.41195021     360.00000000      39.10040843       1.31605463
      12.40000000      39.81250010     360.00000000      39.09949884       1.31602402
      12.50000000      40.15595364     360.00000000      39.09874182       1.31599854
      12.60000000      40.55660410     360.00000000      39.09783962       1.31596817
      12.70000000      40.90014329     360.00000000      39.09708956       1.31594293
      12.80000000      41.30089486     360.00000000      39.09619558       1.31591284
      12.90000000      41.70170130     360.00000000      39.09530627       1.31588290
      13.00000000      42.04537329     360.00000000      39.09456818       1.31585806
      13.10000000      42.44628155     360.00000000      39.09368829       1.31582844
      13.20000000      42.84724504     360.00000000      39.09281371       1.31579901
      13.30000000      43.24826384     360.00000000      39.09194464       1.31576976
      13.40000000      43.59211643     360.00000000      39.09122507       1.31574554
      13.50000000      43.99323772     360.00000000      39.09036691       1.31571665
      13.60000000      44.39441453     360.00000000      39.08951484       1.31568797
      13.70000000      44.79564691     360.00000000      39.08866904       1.31565950
      13.80000000      45.19693489     360.00000000      39.08782968       1.31563125
      13.90000000      45.59827849     360.00000000      39.08699696       1.31560323
      14.00000000      45.99967773     360.00000000      39.08617102       1.31557543
      14.10000000      46.40113259     360.00000000      39.08535204       1.31554786
      14.20000000      46.80264306     360.00000000      39.08454017       1.31552053
      14.30000000      47.26150647     360.00000000      39.08359929       1.31548887
      14.40000000      47.66313644     360.00000000      39.08280303       1.31546206
      14.50000000      48.06482186     360.00000000      39.08201432       1.31543552
      14.60000000      48.52388655     360.00000000      39.08110007       1.31540475
      14.70000000      48.92569100     360.00000000      39.08032786       1.31537875
      14.80000000      49.32755059     360.00000000      39.07956358       1.31535303
      14.90000000      49.78681551     360.00000000      39.07867735       1.31532320
      15.00000000      50.18879332     360.00000000      39.07793031       1.31529806
      15.10000000      50.64819406     360.00000000      39.07706381       1.31526889
      15.20000000      51.10766717     360.00000000      39.07620798       1.31524009
      15.30000000      51.56721235     360.00000000      39.07536293       1.31521164
      15.40000000      51.96943244     360.00000000      39.07465270       1.31518774
      15.50000000      52.42911134     360.00000000      39.07382825       1.31515999
      15.60000000      52.88886132     360.00000000      39.07301487       1.31513261
      15.70000000      53.34868199     360.00000000      39.07221263       1.31510561
      15.80000000      53.86600731     360.00000000      39.07130288       1.31507499
      15.90000000      54.32597730     360.00000000      39.07052447       1.31504879
      16.00000000      54.78601653     360.00000000      39.06975738       1.31502297
      16.10000000      55.24612449     360.00000000      39.06900167       1.31499753
      16.20000000      55.76377291     360.00000000      39.06814414       1.31496867
      16.30000000      56.28150811     360.00000000      39.06730091       1.31494029
      16.40000000      56.74183667     360.00000000      39.06658218       1.31491610
      16.50000000      57.25973281     360.00000000      39.06576608       1.31488863
      16.60000000      57.77771311     360.00000000      39.06496431       1.31486164
      16.70000000      58.29577660     360.00000000      39.06417689       1.31483514
      16.80000000      58.81392223     360.00000000      39.06340380       1.31480912
      16.90000000      59.33214892     360.00000000      39.06264503       1.31478358
      17.00000000      59.90800647     360.00000000      39.06179949       1.31475512
      17.10000000      60.42640121     360.00000000      39.06107081       1.31473059
      17.20000000      61.00244389     360.00000000      39.06025851       1.31470325
      17.30000000      61.57858193     360.00000000      39.05946363       1.31467650
      17.40000000      62.15481358     360.00000000      39.05868614       1.31465033
      17.50000000      62.73113705     360.00000000      39.05792599       1.31462475
      17.60000000      63.36516139     360.00000000      39.05709220       1.31459668
      17.70000000      63.94167236     360.00000000      39.05636836       1.31457232
      17.80000000      64.57589975     360.00000000      39.05557435       1.31454559
      17.90000000      65.21023013     360.00000000      39.05480116       1.31451957
      18.00000000      65.90231185     360.00000000      39.05396520       1.31449143
      18.10000000      66.53684975     360.00000000      39.05323555       1.31446687
      18.20000000      67.22915294     360.00000000      39.05244711       1.31444034
      18.30000000      67.92156696     360.00000000      39.05168359       1.31441464
      18.40000000      68.67177894     360.00000000      39.05086967       1.31438724
      18.50000000      69.42211391     360.00000000      39.05008530       1.31436084
      18.60000000      70.23027853     360.00000000      39.04925999       1.31433306
      18.70000000      71.03857654     360.00000000      39.04846955       1.31430646
      18.80000000      71.84700234     360.00000000      39.04771444       1.31428104
      18.90000000      72.77103285     360.00000000      39.04686924       1.31425259
      19.00000000      73.69521811     360.00000000      39.04607148       1.31422574
      19.10000000      74.67731194     360.00000000      39.04526533       1.31419861
      19.20000000      75.71733524     360.00000000      39.04446151       1.31417155
      19.30000000      76.81530707     360.00000000      39.04367172       1.31414497
      19.40000000      78.08683092     360.00000000      39.04281841       1.31411625
      19.50000000      79.41637347     360.00000000      39.04202382       1.31408950
      19.60000000      80.97738459     360.00000000      39.04120008       1.31406178
      19.70000000      82.88560360     360.00000000      39.04036379       1.31403363
      19.80000000      85.54600929     360.00000000      39.03952193       1.31400530
      19.90000000      90.00000000     360.00000000      39.03904259       1.31398916
      20.00000000      90.00000000     360.00000000      39.03922925       1.31399544
      20.10000000      90.00000000     360.00000000      39.03941590       1.31400173
      20.20000000      90.00000000     360.00000000      39.03960252       1.31400801
      20.30000000      90.00000000     360.00000000      39.03978911       1.31401429
      20.40000000      90.00000000     360.00000000      39.03997569       1.31402057
      20.50000000      90.00000000     360.00000000      39.04016224       1.31402685
      20.60000000      90.00000000     360.00000000      39.04034878       1.31403313
      20.70000000      90.00000000     360.00000000      39.04053529       1.31403940
      20.80000000      90.00000000     360.00000000      39.04072178       1.31404568
      20.90000000      90.00000000     360.00000000      39.04090824       1.31405196
      21.00000000      90.00000000     360.00000000      39.04109469       1.31405823
      21.10000000      90.00000000     360.00000000      39.04128111       1.31406451
      21.20000000      90.00000000     360.00000000      39.04146752       1.31407078
      21.30000000      90.00000000     360.00000000      39.04165390       1.31407705
      21.40000000      90.00000000     360.00000000      39.04184026       1.31408333
      21.50000000      90.00000000     360.00000000      39.04202660       1.31408960
      21.60000000      90.00000000     360.00000000      39.04221291       1.31409587
      21.70000000      90.00000000     360.00000000      39.04239921       1.31410214
      21.80000000      90.00000000     360.00000000      39.04258548       1.31410841
      21.90000000      90.00000000     360.00000000      39.04277173       1.31411468
      22.00000000      90.00000000     360.00000000      39.04295796       1.31412095
      22.10000000      90.00000000     360.00000000      39.04314417       1.31412721
      22.20000000      90.00000000     360.00000000      39.04333036       1.31413348
      22.30000000      90.00000000     360.00000000      39.04351652       1.31413975
      22.40000000      90.00000000     360.00000000      39.04370266       1.31414601
      22.50000000      90.00000000     360.00000000      39.04388879       1.31415228
      22.60000000      90.00000000     360.00000000      39.04407489       1.31415854
      22.70000000      90.00000000     360.00000000      39.04426097       1.31416480
      22.80000000      90.00000000     360.00000000      39.04444702       1.31417107
      22.90000000      90.00000000     360.00000000      39.04463306       1.31417733
      23.00000000      90.00000000     360.00000000      39.04481907       1.31418359
