 # applied field (T), theta (degree), phi (degree), abs for RE 1-2
     0.00000    10.40475   315.00000     0.03142    10.40475   225.00000     0.03142
     0.10000    10.21110   309.59918     0.03137    10.66972   219.88167     0.03154
     0.20000    10.11240   304.01772     0.03132    11.00633   215.11360     0.03167
     0.30000    10.11327   298.36562     0.03127    11.40342   210.71983     0.03180
     0.40000    10.21502   292.76274     0.03123    11.85013   206.70212     0.03193
     0.50000    10.41551   287.32461     0.03119    12.33636   203.04637     0.03206
     0.60000    10.70953   282.14941     0.03116    12.85310   199.72852     0.03219
     0.70000    11.08949   277.30959     0.03114    13.39244   196.71933     0.03232
     0.80000    11.54634   272.84939     0.03111    13.94760   193.98782     0.03245
     0.90000    12.07041   268.78739     0.03110    14.51284   191.50342     0.03258
     1.00000    12.65209   265.12178     0.03108    15.08331   189.23730     0.03271
     1.10000    13.28229   261.83656     0.03108    15.65498   187.16303     0.03283
     1.20000    14.01154   258.55771     0.03107    16.29818   185.10617     0.03297
     1.30000    14.71831   255.98696     0.03107    16.86199   183.36102     0.03309
     1.40000    15.51635   253.42471     0.03108    17.49024   181.61924     0.03321
     1.50000    16.27111   251.43835     0.03109    18.03624   180.12097     0.03332
     1.60000    17.11051   249.45325     0.03110    18.64066   178.61485     0.03343
     1.70000    17.96339   247.72192     0.03112    19.23011   177.20724     0.03354
     1.80000    18.82512   246.21518     0.03114    19.80334   175.88386     0.03364
     1.90000    19.69179   244.90743     0.03116    20.35939   174.63226     0.03373
     2.00000    20.63333   243.62372     0.03119    20.96024   173.36771     0.03382
     2.10000    21.50065   242.66465     0.03122    21.47817   172.23298     0.03389
     2.20000    22.43742   241.72104     0.03125    22.03622   171.07542     0.03396
     2.30000    23.36801   240.92689     0.03129    22.57137   169.95942     0.03402
     2.40000    24.29048   240.26621     0.03132    23.08346   168.87657     0.03406
     2.50000    25.20330   239.72533     0.03136    23.57246   167.81937     0.03409
     2.60000    26.17536   239.21340     0.03140    24.08941   166.72663     0.03411
     2.70000    27.13368   238.81687     0.03144    24.57949   165.64939     0.03412
     2.80000    28.07747   238.52454     0.03147    25.04302   164.58064     0.03410
     2.90000    29.07273   238.27313     0.03151    25.52511   163.46262     0.03408
     3.00000    30.05020   238.12207     0.03155    25.97755   162.34094     0.03403
     3.10000    31.00990   238.06231     0.03158    26.40119   161.20866     0.03396
     3.20000    32.01433   238.05276     0.03161    26.83531   160.00730     0.03387
     3.30000    32.99895   238.13128     0.03164    27.23879   158.78038     0.03376
     3.40000    34.02378   238.26895     0.03166    27.64741   157.46614     0.03361
     3.50000    35.08537   238.47511     0.03168    28.05717   156.05162     0.03344
     3.60000    36.12445   238.76853     0.03170    28.43495   154.58013     0.03323
     3.70000    37.19735   239.13593     0.03170    28.81266   152.98023     0.03298
     3.80000    38.30163   239.58415     0.03171    29.18982   151.23196     0.03269
     3.90000    39.43532   240.11899     0.03170    29.56816   149.31222     0.03235
     4.00000    40.64714   240.75320     0.03169    29.97656   147.11954     0.03194
     4.10000    41.88320   241.49049     0.03166    30.39872   144.68844     0.03147
     4.20000    43.14335   242.33219     0.03163    30.85112   141.98623     0.03093
     4.30000    44.52038   243.31813     0.03158    31.40779   138.78933     0.03029
     4.40000    45.96303   244.44340     0.03151    32.09070   135.12613     0.02955
     4.50000    47.55722   245.76503     0.03144    33.03375   130.73100     0.02866
     4.60000    49.33774   247.32826     0.03134    34.42180   125.42964     0.02761
     4.70000    51.37667   249.20843     0.03122    36.61740   118.99340     0.02635
     4.80000    53.85518   251.57727     0.03106    40.45870   111.04281     0.02484
     4.90000    57.14736   254.78264     0.03083    48.03675   101.29427     0.02309
     5.00000    63.90145   260.99109     0.03020    71.30905    88.81632     0.02185
     5.10000    76.99565   266.20096     0.02690   103.00435    93.79904     0.02690
     5.20000    76.99242   266.42758     0.02689   103.00758    93.57242     0.02689
     5.30000    76.98940   266.65435     0.02688   103.01060    93.34565     0.02688
     5.40000    76.98657   266.88128     0.02687   103.01343    93.11872     0.02687
     5.50000    76.98393   267.10836     0.02686   103.01607    92.89164     0.02686
     5.60000    76.98149   267.33558     0.02685   103.01851    92.66442     0.02685
     5.70000    76.97924   267.56293     0.02684   103.02076    92.43707     0.02684
     5.80000    76.97720   267.79040     0.02683   103.02280    92.20960     0.02683
     5.90000    76.97535   268.01800     0.02683   103.02465    91.98200     0.02683
     6.00000    76.97370   268.24571     0.02682   103.02630    91.75429     0.02682
     6.10000    76.97224   268.47352     0.02681   103.02776    91.52648     0.02681
     6.20000    76.97099   268.70143     0.02680   103.02901    91.29857     0.02680
     6.30000    76.96993   268.92943     0.02680   103.03007    91.07057     0.02680
     6.40000    76.96907   269.15751     0.02679   103.03093    90.84249     0.02679
     6.50000    76.96842   269.38567     0.02678   103.03158    90.61433     0.02678
     6.60000    76.96796   269.61390     0.02678   103.03204    90.38610     0.02678
     6.70000    76.96770   269.84219     0.02677   103.03230    90.15781     0.02677
     6.80000    76.96764   270.07054     0.02677   103.03236    89.92946     0.02677
     6.90000    76.96778   270.29893     0.02676   103.03222    89.70107     0.02676
     7.00000    76.96812   270.52737     0.02676   103.03188    89.47263     0.02676
     7.10000    76.96867   270.75583     0.02676   103.03133    89.24417     0.02676
     7.20000    76.96941   270.98433     0.02675   103.03059    89.01567     0.02675
     7.30000    76.97035   271.21284     0.02675   103.02965    88.78716     0.02675
     7.40000    76.97149   271.44136     0.02675   103.02851    88.55864     0.02675
     7.50000    76.97283   271.66989     0.02675   103.02717    88.33011     0.02675
     7.60000    76.97438   271.89841     0.02674   103.02562    88.10159     0.02674
     7.70000    76.97612   272.12692     0.02674   103.02388    87.87308     0.02674
     7.80000    76.97806   272.35542     0.02674   103.02194    87.64458     0.02674
     7.90000    76.98020   272.58389     0.02674   103.01980    87.41611     0.02674
     8.00000    76.98255   272.81233     0.02674   103.01745    87.18767     0.02674
     8.10000    76.98509   273.04073     0.02674   103.01491    86.95927     0.02674
     8.20000    76.98783   273.26908     0.02674   103.01217    86.73092     0.02674
     8.30000    76.99077   273.49738     0.02675   103.00923    86.50262     0.02675
     8.40000    76.99391   273.72561     0.02675   103.00609    86.27439     0.02675
     8.50000    76.99725   273.95378     0.02675   103.00275    86.04622     0.02675
     8.60000    77.00078   274.18188     0.02675   102.99922    85.81812     0.02675
     8.70000    77.00451   274.40989     0.02675   102.99549    85.59011     0.02675
     8.80000    77.00845   274.63781     0.02676   102.99155    85.36219     0.02676
     8.90000    77.01257   274.86564     0.02676   102.98743    85.13436     0.02676
     9.00000    77.01690   275.09336     0.02677   102.98310    84.90664     0.02677
     9.10000    77.02142   275.32097     0.02677   102.97858    84.67903     0.02677
     9.20000    77.02613   275.54846     0.02678   102.97387    84.45154     0.02678
     9.30000    77.03104   275.77583     0.02678   102.96896    84.22417     0.02678
     9.40000    77.03615   276.00306     0.02679   102.96385    83.99694     0.02679
     9.50000    77.04145   276.23016     0.02679   102.95855    83.76984     0.02679
     9.60000    77.04694   276.45711     0.02680   102.95306    83.54289     0.02680
     9.70000    77.05263   276.68390     0.02681   102.94737    83.31610     0.02681
     9.80000    77.05850   276.91054     0.02681   102.94150    83.08946     0.02681
     9.90000    77.06457   277.13701     0.02682   102.93543    82.86299     0.02682
    10.00000    77.07083   277.36331     0.02683   102.92917    82.63669     0.02683
    10.10000    77.07728   277.58942     0.02684   102.92272    82.41058     0.02684
    10.20000    77.08392   277.81535     0.02685   102.91608    82.18465     0.02685
    10.30000    77.09075   278.04108     0.02686   102.90925    81.95892     0.02686
    10.40000    77.09776   278.26662     0.02686   102.90224    81.73338     0.02686
    10.50000    77.10496   278.49194     0.02687   102.89504    81.50806     0.02687
    10.60000    77.11235   278.71705     0.02689   102.88765    81.28295     0.02689
    10.70000    77.11993   278.94194     0.02690   102.88007    81.05806     0.02690
    10.80000    77.12768   279.16661     0.02691   102.87232    80.83339     0.02691
    10.90000    77.13563   279.39104     0.02692   102.86437    80.60896     0.02692
    11.00000    77.14375   279.61523     0.02693   102.85625    80.38477     0.02693
    11.10000    77.15205   279.83917     0.02694   102.84795    80.16083     0.02694
    11.20000    77.16054   280.06286     0.02696   102.83946    79.93714     0.02696
    11.30000    77.16921   280.28629     0.02697   102.83079    79.71371     0.02697
    11.40000    77.17805   280.50945     0.02698   102.82195    79.49055     0.02698
    11.50000    77.18707   280.73234     0.02700   102.81293    79.26766     0.02700
    11.60000    77.19627   280.95495     0.02701   102.80373    79.04505     0.02701
    11.70000    77.20564   281.17728     0.02703   102.79436    78.82272     0.02703
    11.80000    77.21519   281.39932     0.02704   102.78481    78.60068     0.02704
    11.90000    77.22491   281.62106     0.02706   102.77509    78.37894     0.02706
    12.00000    77.23481   281.84250     0.02707   102.76519    78.15750     0.02707
    12.10000    77.24487   282.06363     0.02709   102.75513    77.93637     0.02709
    12.20000    77.25511   282.28445     0.02711   102.74489    77.71555     0.02711
    12.30000    77.26551   282.50494     0.02712   102.73449    77.49506     0.02712
    12.40000    77.27608   282.72511     0.02714   102.72392    77.27489     0.02714
    12.50000    77.28682   282.94495     0.02716   102.71318    77.05505     0.02716
    12.60000    77.29772   283.16445     0.02718   102.70228    76.83555     0.02718
    12.70000    77.30879   283.38360     0.02719   102.69121    76.61640     0.02719
    12.80000    77.32002   283.60241     0.02721   102.67998    76.39759     0.02721
    12.90000    77.33141   283.82086     0.02723   102.66859    76.17914     0.02723
    13.00000    77.34296   284.03895     0.02725   102.65704    75.96105     0.02725
    13.10000    77.35467   284.25668     0.02727   102.64533    75.74332     0.02727
    13.20000    77.36653   284.47404     0.02729   102.63347    75.52596     0.02729
    13.30000    77.37856   284.69102     0.02731   102.62144    75.30898     0.02731
    13.40000    77.39073   284.90762     0.02733   102.60927    75.09238     0.02733
    13.50000    77.40306   285.12384     0.02736   102.59694    74.87616     0.02736
    13.60000    77.41555   285.33966     0.02738   102.58445    74.66034     0.02738
    13.70000    77.42818   285.55509     0.02740   102.57182    74.44491     0.02740
    13.80000    77.44096   285.77011     0.02742   102.55904    74.22989     0.02742
    13.90000    77.45390   285.98473     0.02745   102.54610    74.01527     0.02745
    14.00000    77.46697   286.19894     0.02747   102.53303    73.80106     0.02747
    14.10000    77.48020   286.41273     0.02749   102.51980    73.58727     0.02749
    14.20000    77.49356   286.62611     0.02752   102.50644    73.37389     0.02752
    14.30000    77.50707   286.83905     0.02754   102.49293    73.16095     0.02754
    14.40000    77.52072   287.05157     0.02757   102.47928    72.94843     0.02757
    14.50000    77.53451   287.26366     0.02759   102.46549    72.73634     0.02759
    14.60000    77.54844   287.47530     0.02762   102.45156    72.52470     0.02762
    14.70000    77.56250   287.68650     0.02764   102.43750    72.31350     0.02764
    14.80000    77.57670   287.89726     0.02767   102.42330    72.10274     0.02767
    14.90000    77.59103   288.10756     0.02770   102.40897    71.89244     0.02770
    15.00000    77.60550   288.31741     0.02772   102.39450    71.68259     0.02772
    15.10000    77.62009   288.52680     0.02775   102.37991    71.47320     0.02775
    15.20000    77.63481   288.73572     0.02778   102.36519    71.26428     0.02778
    15.30000    77.64966   288.94418     0.02781   102.35034    71.05582     0.02781
    15.40000    77.66464   289.15217     0.02783   102.33536    70.84783     0.02783
    15.50000    77.67974   289.35967     0.02786   102.32026    70.64033     0.02786
    15.60000    77.69497   289.56670     0.02789   102.30503    70.43330     0.02789
    15.70000    77.71031   289.77325     0.02792   102.28969    70.22675     0.02792
    15.80000    77.72578   289.97931     0.02795   102.27422    70.02069     0.02795
    15.90000    77.74136   290.18488     0.02798   102.25864    69.81512     0.02798
    16.00000    77.75707   290.38996     0.02801   102.24293    69.61004     0.02801
    16.10000    77.77288   290.59454     0.02804   102.22712    69.40546     0.02804
    16.20000    77.78881   290.79862     0.02807   102.21119    69.20138     0.02807
    16.30000    77.80486   291.00219     0.02810   102.19514    68.99781     0.02810
    16.40000    77.82101   291.20526     0.02814   102.17899    68.79474     0.02814
    16.50000    77.83727   291.40782     0.02817   102.16273    68.59218     0.02817
    16.60000    77.85364   291.60986     0.02820   102.14636    68.39014     0.02820
    16.70000    77.87012   291.81139     0.02823   102.12988    68.18861     0.02823
    16.80000    77.88670   292.01240     0.02827   102.11330    67.98760     0.02827
    16.90000    77.90339   292.21288     0.02830   102.09661    67.78712     0.02830
    17.00000    77.92017   292.41284     0.02833   102.07983    67.58716     0.02833
    17.10000    77.93706   292.61228     0.02837   102.06294    67.38772     0.02837
    17.20000    77.95405   292.81118     0.02840   102.04595    67.18882     0.02840
    17.30000    77.97113   293.00955     0.02844   102.02887    66.99045     0.02844
    17.40000    77.98831   293.20738     0.02847   102.01169    66.79262     0.02847
    17.50000    78.00558   293.40468     0.02851   101.99442    66.59532     0.02851
    17.60000    78.02294   293.60143     0.02854   101.97706    66.39857     0.02854
    17.70000    78.04040   293.79765     0.02858   101.95960    66.20235     0.02858
    17.80000    78.05794   293.99331     0.02861   101.94206    66.00669     0.02861
    17.90000    78.07557   294.18843     0.02865   101.92443    65.81157     0.02865
    18.00000    78.09329   294.38300     0.02869   101.90671    65.61700     0.02869
    18.10000    78.11109   294.57702     0.02872   101.88891    65.42298     0.02872
    18.20000    78.12898   294.77048     0.02876   101.87102    65.22952     0.02876
    18.30000    78.14695   294.96339     0.02880   101.85305    65.03661     0.02880
    18.40000    78.16500   295.15573     0.02884   101.83500    64.84427     0.02884
    18.50000    78.18313   295.34752     0.02888   101.81687    64.65248     0.02888
    18.60000    78.20133   295.53875     0.02892   101.79867    64.46125     0.02892
    18.70000    78.21961   295.72941     0.02895   101.78039    64.27059     0.02895
    18.80000    78.23797   295.91951     0.02899   101.76203    64.08049     0.02899
    18.90000    78.25640   296.10904     0.02903   101.74360    63.89096     0.02903
    19.00000    78.27490   296.29801     0.02907   101.72510    63.70199     0.02907
    19.10000    78.29347   296.48640     0.02911   101.70653    63.51360     0.02911
    19.20000    78.31211   296.67422     0.02915   101.68789    63.32578     0.02915
    19.30000    78.33082   296.86147     0.02920   101.66918    63.13853     0.02920
    19.40000    78.34959   297.04815     0.02924   101.65041    62.95185     0.02924
    19.50000    78.36843   297.23425     0.02928   101.63157    62.76575     0.02928
    19.60000    78.38733   297.41977     0.02932   101.61267    62.58023     0.02932
    19.70000    78.40629   297.60472     0.02936   101.59371    62.39528     0.02936
    19.80000    78.42531   297.78908     0.02940   101.57469    62.21092     0.02940
    19.90000    78.44439   297.97287     0.02945   101.55561    62.02713     0.02945
    20.00000    78.46353   298.15608     0.02949   101.53647    61.84392     0.02949
    20.10000    78.48272   298.33870     0.02953   101.51728    61.66130     0.02953
    20.20000    78.50197   298.52074     0.02958   101.49803    61.47926     0.02958
    20.30000    78.52127   298.70220     0.02962   101.47873    61.29780     0.02962
    20.40000    78.54063   298.88307     0.02966   101.45937    61.11693     0.02966
    20.50000    78.56003   299.06336     0.02971   101.43997    60.93664     0.02971
    20.60000    78.57949   299.24306     0.02975   101.42051    60.75694     0.02975
    20.70000    78.59899   299.42218     0.02980   101.40101    60.57782     0.02980
    20.80000    78.61854   299.60070     0.02984   101.38146    60.39930     0.02984
    20.90000    78.63814   299.77864     0.02989   101.36186    60.22136     0.02989
    21.00000    78.65777   299.95600     0.02993   101.34223    60.04400     0.02993
    21.10000    78.67746   300.13276     0.02998   101.32254    59.86724     0.02998
    21.20000    78.69718   300.30893     0.03003   101.30282    59.69107     0.03003
    21.30000    78.71694   300.48452     0.03007   101.28306    59.51548     0.03007
    21.40000    78.73675   300.65951     0.03012   101.26325    59.34049     0.03012
    21.50000    78.75659   300.83392     0.03017   101.24341    59.16608     0.03017
    21.60000    78.77646   301.00773     0.03021   101.22354    58.99227     0.03021
    21.70000    78.79638   301.18096     0.03026   101.20362    58.81904     0.03026
    21.80000    78.81632   301.35359     0.03031   101.18368    58.64641     0.03031
    21.90000    78.83630   301.52563     0.03036   101.16370    58.47437     0.03036
    22.00000    78.85631   301.69709     0.03041   101.14369    58.30291     0.03041
    22.10000    78.87636   301.86795     0.03046   101.12364    58.13205     0.03046
    22.20000    78.89643   302.03822     0.03050   101.10357    57.96178     0.03050
    22.30000    78.91653   302.20790     0.03055   101.08347    57.79210     0.03055
    22.40000    78.93665   302.37699     0.03060   101.06335    57.62301     0.03060
    22.50000    78.95681   302.54549     0.03065   101.04319    57.45451     0.03065
    22.60000    78.97698   302.71340     0.03070   101.02302    57.28660     0.03070
    22.70000    78.99719   302.88072     0.03075   101.00281    57.11928     0.03075
    22.80000    79.01741   303.04745     0.03080   100.98259    56.95255     0.03080
    22.90000    79.03766   303.21359     0.03085   100.96234    56.78641     0.03085
    23.00000    79.05792   303.37915     0.03090   100.94208    56.62085     0.03090
    23.10000    79.07821   303.54411     0.03096   100.92179    56.45589     0.03096
    23.20000    79.09851   303.70849     0.03101   100.90149    56.29151     0.03101
    23.30000    79.11883   303.87227     0.03106   100.88117    56.12773     0.03106
