 # applied field (T), theta (degree), phi (degree), abs [muB/unitcell], abs [T]
       0.00000000       0.00000000       0.00000000      44.52237992       1.53199021
       0.10000000       1.02911377     360.00000000      44.52234119       1.53198887
       0.20000000       2.05823339     360.00000000      44.52222513       1.53198488
       0.30000000       3.03022297     360.00000000      44.52204550       1.53197870
       0.40000000       4.05937062     360.00000000      44.52178040       1.53196958
       0.50000000       5.08854119     360.00000000      44.52143951       1.53195785
       0.60000000       6.11774035     360.00000000      44.52102377       1.53194354
       0.70000000       7.14697367     360.00000000      44.52053431       1.53192670
       0.80000000       8.17624663     360.00000000      44.51997249       1.53190737
       0.90000000       9.20556457     360.00000000      44.51933983       1.53188560
       1.00000000      10.23493269     360.00000000      44.51863807       1.53186145
       1.10000000      11.32151586     360.00000000      44.51782177       1.53183336
       1.20000000      12.35100288     360.00000000      44.51698389       1.53180453
       1.30000000      13.43772242     360.00000000      44.51602826       1.53177165
       1.40000000      14.52451991     360.00000000      44.51500506       1.53173644
       1.50000000      15.61140036     360.00000000      44.51391731       1.53169901
       1.60000000      16.69836846     360.00000000      44.51276821       1.53165947
       1.70000000      17.84261539     360.00000000      44.51149208       1.53161556
       1.80000000      18.92977704     360.00000000      44.51022746       1.53157205
       1.90000000      20.07423674     360.00000000      44.50883716       1.53152421
       2.00000000      21.27601605     360.00000000      44.50731670       1.53147189
       2.10000000      22.42071612     360.00000000      44.50582380       1.53142052
       2.20000000      23.62275561     360.00000000      44.50420515       1.53136482
       2.30000000      24.82493329     360.00000000      44.50254403       1.53130767
       2.40000000      26.08448323     360.00000000      44.50075905       1.53124625
       2.50000000      27.34419047     360.00000000      44.49893930       1.53118363
       2.60000000      28.66130353     360.00000000      44.49700120       1.53111694
       2.70000000      29.97859209     360.00000000      44.49503880       1.53104941
       2.80000000      31.35331962     360.00000000      44.49296736       1.53097814
       2.90000000      32.72823896     360.00000000      44.49088483       1.53090648
       3.00000000      34.16062877     360.00000000      44.48870644       1.53083152
       3.10000000      35.65051244     360.00000000      44.48644029       1.53075354
       3.20000000      37.19791276     360.00000000      44.48409620       1.53067289
       3.30000000      38.80285156     360.00000000      44.48168584       1.53058995
       3.40000000      40.52266567     360.00000000      44.47913296       1.53050210
       3.50000000      42.24274996     360.00000000      44.47663362       1.53041610
       3.60000000      44.07776284     360.00000000      44.47402786       1.53032644
       3.70000000      46.02774535     360.00000000      44.47134174       1.53023401
       3.80000000      48.09273446     360.00000000      44.46860523       1.53013985
       3.90000000      50.27276155     360.00000000      44.46585182       1.53004511
       4.00000000      52.68259602     360.00000000      44.46297621       1.52994616
       4.10000000      55.32230646     360.00000000      44.46004768       1.52984539
       4.20000000      58.19194541     360.00000000      44.45714298       1.52974544
       4.30000000      61.52113854     360.00000000      44.45413461       1.52964192
       4.40000000      65.42479235     360.00000000      44.45110859       1.52953780
       4.50000000      70.24746199     360.00000000      44.44809565       1.52943413
       4.60000000      77.13760275     360.00000000      44.44507854       1.52933031
       4.70000000      90.00000000     360.00000000      44.44304998       1.52926051
       4.80000000      90.00000000     360.00000000      44.44329607       1.52926898
       4.90000000      90.00000000     360.00000000      44.44354214       1.52927744
       5.00000000      90.00000000     360.00000000      44.44378819       1.52928591
       5.10000000      90.00000000     360.00000000      44.44403421       1.52929438
       5.20000000      90.00000000     360.00000000      44.44428022       1.52930284
       5.30000000      90.00000000     360.00000000      44.44452620       1.52931130
       5.40000000      90.00000000     360.00000000      44.44477216       1.52931977
       5.50000000      90.00000000     360.00000000      44.44501809       1.52932823
       5.60000000      90.00000000     360.00000000      44.44526401       1.52933669
       5.70000000      90.00000000     360.00000000      44.44550990       1.52934515
       5.80000000      90.00000000     360.00000000      44.44575577       1.52935361
       5.90000000      90.00000000     360.00000000      44.44600161       1.52936207
       6.00000000      90.00000000     360.00000000      44.44624744       1.52937053
       6.10000000      90.00000000     360.00000000      44.44649324       1.52937899
       6.20000000      90.00000000     360.00000000      44.44673902       1.52938745
       6.30000000      90.00000000     360.00000000      44.44698478       1.52939590
       6.40000000      90.00000000     360.00000000      44.44723051       1.52940436
       6.50000000      90.00000000     360.00000000      44.44747622       1.52941281
       6.60000000      90.00000000     360.00000000      44.44772191       1.52942127
       6.70000000      90.00000000     360.00000000      44.44796758       1.52942972
       6.80000000      90.00000000     360.00000000      44.44821322       1.52943817
       6.90000000      90.00000000     360.00000000      44.44845885       1.52944662
       7.00000000      90.00000000     360.00000000      44.44870445       1.52945508
       7.10000000      90.00000000     360.00000000      44.44895002       1.52946353
       7.20000000      90.00000000     360.00000000      44.44919558       1.52947198
       7.30000000      90.00000000     360.00000000      44.44944111       1.52948042
       7.40000000      90.00000000     360.00000000      44.44968662       1.52948887
       7.50000000      90.00000000     360.00000000      44.44993211       1.52949732
       7.60000000      90.00000000     360.00000000      44.45017758       1.52950577
       7.70000000      90.00000000     360.00000000      44.45042302       1.52951421
       7.80000000      90.00000000     360.00000000      44.45066844       1.52952266
       7.90000000      90.00000000     360.00000000      44.45091384       1.52953110
       8.00000000      90.00000000     360.00000000      44.45115922       1.52953954
       8.10000000      90.00000000     360.00000000      44.45140458       1.52954799
       8.20000000      90.00000000     360.00000000      44.45164991       1.52955643
       8.30000000      90.00000000     360.00000000      44.45189522       1.52956487
       8.40000000      90.00000000     360.00000000      44.45214051       1.52957331
       8.50000000      90.00000000     360.00000000      44.45238577       1.52958175
       8.60000000      90.00000000     360.00000000      44.45263102       1.52959019
       8.70000000      90.00000000     360.00000000      44.45287624       1.52959862
       8.80000000      90.00000000     360.00000000      44.45312144       1.52960706
       8.90000000      90.00000000     360.00000000      44.45336662       1.52961550
       9.00000000      90.00000000     360.00000000      44.45361177       1.52962393
       9.10000000      90.00000000     360.00000000      44.45385690       1.52963237
       9.20000000      90.00000000     360.00000000      44.45410201       1.52964080
       9.30000000      90.00000000     360.00000000      44.45434710       1.52964924
       9.40000000      90.00000000     360.00000000      44.45459217       1.52965767
       9.50000000      90.00000000     360.00000000      44.45483721       1.52966610
       9.60000000      90.00000000     360.00000000      44.45508224       1.52967453
       9.70000000      90.00000000     360.00000000      44.45532724       1.52968296
       9.80000000      90.00000000     360.00000000      44.45557221       1.52969139
       9.90000000      90.00000000     360.00000000      44.45581717       1.52969982
      10.00000000      90.00000000     360.00000000      44.45606210       1.52970825
      10.10000000      90.00000000     360.00000000      44.45630702       1.52971668
      10.20000000      90.00000000     360.00000000      44.45655191       1.52972510
      10.30000000      90.00000000     360.00000000      44.45679677       1.52973353
      10.40000000      90.00000000     360.00000000      44.45704162       1.52974195
      10.50000000      90.00000000     360.00000000      44.45728644       1.52975038
      10.60000000      90.00000000     360.00000000      44.45753124       1.52975880
      10.70000000      90.00000000     360.00000000      44.45777602       1.52976722
      10.80000000      90.00000000     360.00000000      44.45802078       1.52977565
      10.90000000      90.00000000     360.00000000      44.45826552       1.52978407
      11.00000000      90.00000000     360.00000000      44.45851023       1.52979249
      11.10000000      90.00000000     360.00000000      44.45875492       1.52980091
      11.20000000      90.00000000     360.00000000      44.45899959       1.52980933
      11.30000000      90.00000000     360.00000000      44.45924424       1.52981774
      11.40000000      90.00000000     360.00000000      44.45948886       1.52982616
      11.50000000      90.00000000     360.00000000      44.45973347       1.52983458
      11.60000000      90.00000000     360.00000000      44.45997805       1.52984299
      11.70000000      90.00000000     360.00000000      44.46022261       1.52985141
      11.80000000      90.00000000     360.00000000      44.46046715       1.52985982
      11.90000000      90.00000000     360.00000000      44.46071166       1.52986824
      12.00000000      90.00000000     360.00000000      44.46095616       1.52987665
      12.10000000      90.00000000     360.00000000      44.46120063       1.52988506
      12.20000000      90.00000000     360.00000000      44.46144508       1.52989347
      12.30000000      90.00000000     360.00000000      44.46168951       1.52990188
      12.40000000      90.00000000     360.00000000      44.46193391       1.52991029
      12.50000000      90.00000000     360.00000000      44.46217830       1.52991870
      12.60000000      90.00000000     360.00000000      44.46242266       1.52992711
      12.70000000      90.00000000     360.00000000      44.46266700       1.52993552
      12.80000000      90.00000000     360.00000000      44.46291132       1.52994393
      12.90000000      90.00000000     360.00000000      44.46315562       1.52995233
      13.00000000      90.00000000     360.00000000      44.46339989       1.52996074
      13.10000000      90.00000000     360.00000000      44.46364414       1.52996914
      13.20000000      90.00000000     360.00000000      44.46388838       1.52997755
      13.30000000      90.00000000     360.00000000      44.46413259       1.52998595
      13.40000000      90.00000000     360.00000000      44.46437677       1.52999435
      13.50000000      90.00000000     360.00000000      44.46462094       1.53000275
      13.60000000      90.00000000     360.00000000      44.46486508       1.53001115
      13.70000000      90.00000000     360.00000000      44.46510921       1.53001955
      13.80000000      90.00000000     360.00000000      44.46535331       1.53002795
      13.90000000      90.00000000     360.00000000      44.46559739       1.53003635
      14.00000000      90.00000000     360.00000000      44.46584144       1.53004475
      14.10000000      90.00000000     360.00000000      44.46608548       1.53005315
      14.20000000      90.00000000     360.00000000      44.46632949       1.53006154
      14.30000000      90.00000000     360.00000000      44.46657348       1.53006994
      14.40000000      90.00000000     360.00000000      44.46681745       1.53007833
      14.50000000      90.00000000     360.00000000      44.46706140       1.53008673
      14.60000000      90.00000000     360.00000000      44.46730533       1.53009512
      14.70000000      90.00000000     360.00000000      44.46754924       1.53010351
      14.80000000      90.00000000     360.00000000      44.46779312       1.53011191
      14.90000000      90.00000000     360.00000000      44.46803698       1.53012030
      15.00000000      90.00000000     360.00000000      44.46828082       1.53012869
      15.10000000      90.00000000     360.00000000      44.46852464       1.53013708
      15.20000000      90.00000000     360.00000000      44.46876844       1.53014547
      15.30000000      90.00000000     360.00000000      44.46901221       1.53015385
      15.40000000      90.00000000     360.00000000      44.46925597       1.53016224
      15.50000000      90.00000000     360.00000000      44.46949970       1.53017063
      15.60000000      90.00000000     360.00000000      44.46974341       1.53017901
      15.70000000      90.00000000     360.00000000      44.46998710       1.53018740
      15.80000000      90.00000000     360.00000000      44.47023076       1.53019578
      15.90000000      90.00000000     360.00000000      44.47047441       1.53020417
      16.00000000      90.00000000     360.00000000      44.47071803       1.53021255
      16.10000000      90.00000000     360.00000000      44.47096164       1.53022093
      16.20000000      90.00000000     360.00000000      44.47120522       1.53022931
      16.30000000      90.00000000     360.00000000      44.47144878       1.53023770
      16.40000000      90.00000000     360.00000000      44.47169231       1.53024608
      16.50000000      90.00000000     360.00000000      44.47193583       1.53025445
      16.60000000      90.00000000     360.00000000      44.47217932       1.53026283
      16.70000000      90.00000000     360.00000000      44.47242280       1.53027121
      16.80000000      90.00000000     360.00000000      44.47266625       1.53027959
      16.90000000      90.00000000     360.00000000      44.47290968       1.53028796
      17.00000000      90.00000000     360.00000000      44.47315309       1.53029634
      17.10000000      90.00000000     360.00000000      44.47339647       1.53030471
      17.20000000      90.00000000     360.00000000      44.47363984       1.53031309
      17.30000000      90.00000000     360.00000000      44.47388318       1.53032146
      17.40000000      90.00000000     360.00000000      44.47412651       1.53032983
      17.50000000      90.00000000     360.00000000      44.47436981       1.53033821
      17.60000000      90.00000000     360.00000000      44.47461309       1.53034658
      17.70000000      90.00000000     360.00000000      44.47485635       1.53035495
      17.80000000      90.00000000     360.00000000      44.47509958       1.53036332
      17.90000000      90.00000000     360.00000000      44.47534280       1.53037169
      18.00000000      90.00000000     360.00000000      44.47558599       1.53038005
      18.10000000      90.00000000     360.00000000      44.47582917       1.53038842
      18.20000000      90.00000000     360.00000000      44.47607232       1.53039679
      18.30000000      90.00000000     360.00000000      44.47631545       1.53040515
      18.40000000      90.00000000     360.00000000      44.47655856       1.53041352
      18.50000000      90.00000000     360.00000000      44.47680164       1.53042188
      18.60000000      90.00000000     360.00000000      44.47704471       1.53043025
      18.70000000      90.00000000     360.00000000      44.47728775       1.53043861
      18.80000000      90.00000000     360.00000000      44.47753078       1.53044697
      18.90000000      90.00000000     360.00000000      44.47777378       1.53045534
      19.00000000      90.00000000     360.00000000      44.47801676       1.53046370
      19.10000000      90.00000000     360.00000000      44.47825972       1.53047206
      19.20000000      90.00000000     360.00000000      44.47850265       1.53048042
      19.30000000      90.00000000     360.00000000      44.47874557       1.53048877
      19.40000000      90.00000000     360.00000000      44.47898847       1.53049713
      19.50000000      90.00000000     360.00000000      44.47923134       1.53050549
      19.60000000      90.00000000     360.00000000      44.47947419       1.53051385
      19.70000000      90.00000000     360.00000000      44.47971702       1.53052220
      19.80000000      90.00000000     360.00000000      44.47995983       1.53053056
      19.90000000      90.00000000     360.00000000      44.48020262       1.53053891
      20.00000000      90.00000000     360.00000000      44.48044539       1.53054726
      20.10000000      90.00000000     360.00000000      44.48068814       1.53055562
      20.20000000      90.00000000     360.00000000      44.48093086       1.53056397
      20.30000000      90.00000000     360.00000000      44.48117357       1.53057232
      20.40000000      90.00000000     360.00000000      44.48141625       1.53058067
      20.50000000      90.00000000     360.00000000      44.48165891       1.53058902
      20.60000000      90.00000000     360.00000000      44.48190155       1.53059737
      20.70000000      90.00000000     360.00000000      44.48214417       1.53060572
      20.80000000      90.00000000     360.00000000      44.48238677       1.53061407
      20.90000000      90.00000000     360.00000000      44.48262934       1.53062241
      21.00000000      90.00000000     360.00000000      44.48287190       1.53063076
      21.10000000      90.00000000     360.00000000      44.48311443       1.53063910
      21.20000000      90.00000000     360.00000000      44.48335695       1.53064745
      21.30000000      90.00000000     360.00000000      44.48359944       1.53065579
      21.40000000      90.00000000     360.00000000      44.48384191       1.53066414
      21.50000000      90.00000000     360.00000000      44.48408436       1.53067248
      21.60000000      90.00000000     360.00000000      44.48432679       1.53068082
      21.70000000      90.00000000     360.00000000      44.48456920       1.53068916
      21.80000000      90.00000000     360.00000000      44.48481158       1.53069750
      21.90000000      90.00000000     360.00000000      44.48505395       1.53070584
      22.00000000      90.00000000     360.00000000      44.48529629       1.53071418
      22.10000000      90.00000000     360.00000000      44.48553862       1.53072252
      22.20000000      90.00000000     360.00000000      44.48578092       1.53073086
      22.30000000      90.00000000     360.00000000      44.48602320       1.53073919
      22.40000000      90.00000000     360.00000000      44.48626546       1.53074753
      22.50000000      90.00000000     360.00000000      44.48650770       1.53075586
      22.60000000      90.00000000     360.00000000      44.48674992       1.53076420
      22.70000000      90.00000000     360.00000000      44.48699211       1.53077253
      22.80000000      90.00000000     360.00000000      44.48723429       1.53078087
      22.90000000      90.00000000     360.00000000      44.48747644       1.53078920
      23.00000000      90.00000000     360.00000000      44.48771858       1.53079753
