 # applied field (T), theta (degree), phi (degree), abs for RE 3-4
     0.00000     1.62771   135.00000     3.56600     1.62771    45.00000     3.56600
     0.10000     1.14870   100.73605     3.56234     2.39631    29.35784     3.56728
     0.20000     1.29522    58.74075     3.55876     3.20516    21.93231     3.56836
     0.30000     1.94217    33.93547     3.55483     4.09486    17.34250     3.56937
     0.40000     2.76378    22.57448     3.55077     5.00056    14.40310     3.57023
     0.50000     3.64501    16.53530     3.54658     5.91467    12.36831     3.57096
     0.60000     4.55250    12.86311     3.54225     6.83370    10.87884     3.57155
     0.70000     5.47427    10.41113     3.53779     7.75587     9.74216     3.57201
     0.80000     6.40514     8.66235     3.53319     8.68022     8.84633     3.57232
     0.90000     7.34260     7.35339     3.52846     9.60621     8.12205     3.57249
     1.00000     8.28532     6.33702     3.52361    10.53355     7.52419     3.57253
     1.10000     9.23258     5.52479     3.51863    11.46209     7.02212     3.57244
     1.20000    10.23676     4.82723     3.51325    12.44328     6.57250     3.57219
     1.30000    11.24527     4.25107     3.50773    13.42572     6.18757     3.57180
     1.40000    12.20473     3.79027     3.50240    14.35780     5.87050     3.57130
     1.50000    13.22138     3.37384     3.49665    15.34282     5.57670     3.57063
     1.60000    14.29591     2.99680     3.49048    16.38109     5.30464     3.56978
     1.70000    15.32121     2.68514     3.48452    17.36916     5.07532     3.56883
     1.80000    16.40497     2.39682     3.47814    18.41085     4.85960     3.56769
     1.90000    17.49363     2.14192     3.47168    19.45449     4.66603     3.56641
     2.00000    18.58729     1.91470     3.46514    20.50020     4.49125     3.56499
     2.10000    19.74103     1.70103     3.45820    21.60042     4.32502     3.56335
     2.20000    20.90060     1.50878     3.45122    22.70320     4.17395     3.56158
     2.30000    22.06614     1.33468     3.44420    23.80869     4.03596     3.55968
     2.40000    23.29361     1.16887     3.43683    24.96972     3.90358     3.55754
     2.50000    24.58411     1.01103     3.42913    26.18689     3.77674     3.55516
     2.60000    25.82582     0.87278     3.42180    27.35473     3.66503     3.55276
     2.70000    27.18833     0.73420     3.41387    28.63252     3.55258     3.55001
     2.80000    28.55950     0.60668     3.40605    29.91465     3.44871     3.54712
     2.90000    29.99700     0.48402     3.39805    31.25486     3.34854     3.54398
     3.00000    31.50205     0.36604     3.38994    32.65388     3.25198     3.54058
     3.10000    33.01747     0.25658     3.38208    34.05845     3.16226     3.53707
     3.20000    34.66077     0.14701     3.37395    35.57719     3.07238     3.53316
     3.30000    36.31585     0.04500     3.36622    37.10262     2.98865     3.52915
     3.40000    38.10172   359.94307     3.35844    38.74435     2.90495     3.52474
     3.50000    40.02047   359.84173     3.35079    40.50403     2.82171     3.51993
     3.60000    42.01346   359.74425     3.34367    42.32805     2.74158     3.51489
     3.70000    44.20285   359.64511     3.33684    44.32864     2.65995     3.50930
     3.80000    46.52960   359.54767     3.33079    46.45262     2.57949     3.50335
     3.90000    49.05585   359.44988     3.32564    48.75828     2.49834     3.49689
     4.00000    51.84438   359.35036     3.32167    51.30542     2.41511     3.48979
     4.10000    54.95796   359.24827     3.31932    54.15554     2.32870     3.48194
     4.20000    58.52114   359.14146     3.31918    57.42976     2.23670     3.47311
     4.30000    62.71977   359.02727     3.32225    61.31152     2.13575     3.46294
     4.40000    67.92376   358.90020     3.33031    66.16800     2.01910     3.45082
     4.50000    75.17758   358.74392     3.34800    73.03920     1.86709     3.43499
     4.60000    91.23852   358.45210     3.40607    88.76148     1.54790     3.40607
     4.70000    91.23846   358.45216     3.40619    88.76154     1.54784     3.40619
     4.80000    91.23840   358.45222     3.40630    88.76160     1.54778     3.40630
     4.90000    91.23835   358.45229     3.40642    88.76165     1.54771     3.40642
     5.00000    91.23829   358.45235     3.40653    88.76171     1.54765     3.40653
     5.10000    91.23824   358.45241     3.40665    88.76176     1.54759     3.40665
     5.20000    91.23818   358.45248     3.40676    88.76182     1.54752     3.40676
     5.30000    91.23813   358.45254     3.40688    88.76187     1.54746     3.40688
     5.40000    91.23807   358.45260     3.40699    88.76193     1.54740     3.40699
     5.50000    91.23801   358.45267     3.40711    88.76199     1.54733     3.40711
     5.60000    91.23796   358.45273     3.40722    88.76204     1.54727     3.40722
     5.70000    91.23790   358.45279     3.40734    88.76210     1.54721     3.40734
     5.80000    91.23785   358.45286     3.40745    88.76215     1.54714     3.40745
     5.90000    91.23779   358.45292     3.40757    88.76221     1.54708     3.40757
     6.00000    91.23774   358.45298     3.40768    88.76226     1.54702     3.40768
     6.10000    91.23768   358.45304     3.40780    88.76232     1.54696     3.40780
     6.20000    91.23762   358.45311     3.40791    88.76238     1.54689     3.40791
     6.30000    91.23757   358.45317     3.40803    88.76243     1.54683     3.40803
     6.40000    91.23751   358.45323     3.40814    88.76249     1.54677     3.40814
     6.50000    91.23746   358.45330     3.40826    88.76254     1.54670     3.40826
     6.60000    91.23740   358.45336     3.40837    88.76260     1.54664     3.40837
     6.70000    91.23735   358.45342     3.40849    88.76265     1.54658     3.40849
     6.80000    91.23729   358.45349     3.40860    88.76271     1.54651     3.40860
     6.90000    91.23724   358.45355     3.40872    88.76276     1.54645     3.40872
     7.00000    91.23718   358.45361     3.40883    88.76282     1.54639     3.40883
     7.10000    91.23712   358.45368     3.40895    88.76288     1.54632     3.40895
     7.20000    91.23707   358.45374     3.40906    88.76293     1.54626     3.40906
     7.30000    91.23701   358.45380     3.40918    88.76299     1.54620     3.40918
     7.40000    91.23696   358.45386     3.40929    88.76304     1.54614     3.40929
     7.50000    91.23690   358.45393     3.40940    88.76310     1.54607     3.40940
     7.60000    91.23685   358.45399     3.40952    88.76315     1.54601     3.40952
     7.70000    91.23679   358.45405     3.40963    88.76321     1.54595     3.40963
     7.80000    91.23674   358.45412     3.40975    88.76326     1.54588     3.40975
     7.90000    91.23668   358.45418     3.40986    88.76332     1.54582     3.40986
     8.00000    91.23663   358.45424     3.40998    88.76337     1.54576     3.40998
     8.10000    91.23657   358.45430     3.41009    88.76343     1.54570     3.41009
     8.20000    91.23651   358.45437     3.41021    88.76349     1.54563     3.41021
     8.30000    91.23646   358.45443     3.41032    88.76354     1.54557     3.41032
     8.40000    91.23640   358.45449     3.41043    88.76360     1.54551     3.41043
     8.50000    91.23635   358.45456     3.41055    88.76365     1.54544     3.41055
     8.60000    91.23629   358.45462     3.41066    88.76371     1.54538     3.41066
     8.70000    91.23624   358.45468     3.41078    88.76376     1.54532     3.41078
     8.80000    91.23618   358.45474     3.41089    88.76382     1.54526     3.41089
     8.90000    91.23613   358.45481     3.41100    88.76387     1.54519     3.41100
     9.00000    91.23607   358.45487     3.41112    88.76393     1.54513     3.41112
     9.10000    91.23602   358.45493     3.41123    88.76398     1.54507     3.41123
     9.20000    91.23596   358.45500     3.41135    88.76404     1.54500     3.41135
     9.30000    91.23591   358.45506     3.41146    88.76409     1.54494     3.41146
     9.40000    91.23585   358.45512     3.41157    88.76415     1.54488     3.41157
     9.50000    91.23579   358.45518     3.41169    88.76421     1.54482     3.41169
     9.60000    91.23574   358.45525     3.41180    88.76426     1.54475     3.41180
     9.70000    91.23568   358.45531     3.41192    88.76432     1.54469     3.41192
     9.80000    91.23563   358.45537     3.41203    88.76437     1.54463     3.41203
     9.90000    91.23557   358.45543     3.41214    88.76443     1.54457     3.41214
    10.00000    91.23552   358.45550     3.41226    88.76448     1.54450     3.41226
    10.10000    91.23546   358.45556     3.41237    88.76454     1.54444     3.41237
    10.20000    91.23541   358.45562     3.41248    88.76459     1.54438     3.41248
    10.30000    91.23535   358.45569     3.41260    88.76465     1.54431     3.41260
    10.40000    91.23530   358.45575     3.41271    88.76470     1.54425     3.41271
    10.50000    91.23524   358.45581     3.41282    88.76476     1.54419     3.41282
    10.60000    91.23519   358.45587     3.41294    88.76481     1.54413     3.41294
    10.70000    91.23513   358.45594     3.41305    88.76487     1.54406     3.41305
    10.80000    91.23508   358.45600     3.41317    88.76492     1.54400     3.41317
    10.90000    91.23502   358.45606     3.41328    88.76498     1.54394     3.41328
    11.00000    91.23497   358.45612     3.41339    88.76503     1.54388     3.41339
    11.10000    91.23491   358.45619     3.41351    88.76509     1.54381     3.41351
    11.20000    91.23486   358.45625     3.41362    88.76514     1.54375     3.41362
    11.30000    91.23480   358.45631     3.41373    88.76520     1.54369     3.41373
    11.40000    91.23475   358.45637     3.41385    88.76525     1.54363     3.41385
    11.50000    91.23469   358.45644     3.41396    88.76531     1.54356     3.41396
    11.60000    91.23464   358.45650     3.41407    88.76536     1.54350     3.41407
    11.70000    91.23458   358.45656     3.41419    88.76542     1.54344     3.41419
    11.80000    91.23453   358.45662     3.41430    88.76547     1.54338     3.41430
    11.90000    91.23447   358.45669     3.41441    88.76553     1.54331     3.41441
    12.00000    91.23442   358.45675     3.41452    88.76558     1.54325     3.41452
    12.10000    91.23436   358.45681     3.41464    88.76564     1.54319     3.41464
    12.20000    91.23431   358.45687     3.41475    88.76569     1.54313     3.41475
    12.30000    91.23425   358.45694     3.41486    88.76575     1.54306     3.41486
    12.40000    91.23420   358.45700     3.41498    88.76580     1.54300     3.41498
    12.50000    91.23414   358.45706     3.41509    88.76586     1.54294     3.41509
    12.60000    91.23409   358.45712     3.41520    88.76591     1.54288     3.41520
    12.70000    91.23403   358.45719     3.41532    88.76597     1.54281     3.41532
    12.80000    91.23398   358.45725     3.41543    88.76602     1.54275     3.41543
    12.90000    91.23392   358.45731     3.41554    88.76608     1.54269     3.41554
    13.00000    91.23387   358.45737     3.41565    88.76613     1.54263     3.41565
    13.10000    91.23381   358.45743     3.41577    88.76619     1.54257     3.41577
    13.20000    91.23376   358.45750     3.41588    88.76624     1.54250     3.41588
    13.30000    91.23370   358.45756     3.41599    88.76630     1.54244     3.41599
    13.40000    91.23365   358.45762     3.41610    88.76635     1.54238     3.41610
    13.50000    91.23359   358.45768     3.41622    88.76641     1.54232     3.41622
    13.60000    91.23354   358.45775     3.41633    88.76646     1.54225     3.41633
    13.70000    91.23348   358.45781     3.41644    88.76652     1.54219     3.41644
    13.80000    91.23343   358.45787     3.41656    88.76657     1.54213     3.41656
    13.90000    91.23337   358.45793     3.41667    88.76663     1.54207     3.41667
    14.00000    91.23332   358.45800     3.41678    88.76668     1.54200     3.41678
    14.10000    91.23326   358.45806     3.41689    88.76674     1.54194     3.41689
    14.20000    91.23321   358.45812     3.41701    88.76679     1.54188     3.41701
    14.30000    91.23315   358.45818     3.41712    88.76685     1.54182     3.41712
    14.40000    91.23310   358.45824     3.41723    88.76690     1.54176     3.41723
    14.50000    91.23304   358.45831     3.41734    88.76696     1.54169     3.41734
    14.60000    91.23299   358.45837     3.41745    88.76701     1.54163     3.41745
    14.70000    91.23293   358.45843     3.41757    88.76707     1.54157     3.41757
    14.80000    91.23288   358.45849     3.41768    88.76712     1.54151     3.41768
    14.90000    91.23283   358.45855     3.41779    88.76717     1.54145     3.41779
    15.00000    91.23277   358.45862     3.41790    88.76723     1.54138     3.41790
    15.10000    91.23272   358.45868     3.41802    88.76728     1.54132     3.41802
    15.20000    91.23266   358.45874     3.41813    88.76734     1.54126     3.41813
    15.30000    91.23261   358.45880     3.41824    88.76739     1.54120     3.41824
    15.40000    91.23255   358.45887     3.41835    88.76745     1.54113     3.41835
    15.50000    91.23250   358.45893     3.41846    88.76750     1.54107     3.41846
    15.60000    91.23244   358.45899     3.41858    88.76756     1.54101     3.41858
    15.70000    91.23239   358.45905     3.41869    88.76761     1.54095     3.41869
    15.80000    91.23233   358.45911     3.41880    88.76767     1.54089     3.41880
    15.90000    91.23228   358.45918     3.41891    88.76772     1.54082     3.41891
    16.00000    91.23222   358.45924     3.41902    88.76778     1.54076     3.41902
    16.10000    91.23217   358.45930     3.41914    88.76783     1.54070     3.41914
    16.20000    91.23212   358.45936     3.41925    88.76788     1.54064     3.41925
    16.30000    91.23206   358.45942     3.41936    88.76794     1.54058     3.41936
    16.40000    91.23201   358.45949     3.41947    88.76799     1.54051     3.41947
    16.50000    91.23195   358.45955     3.41958    88.76805     1.54045     3.41958
    16.60000    91.23190   358.45961     3.41969    88.76810     1.54039     3.41969
    16.70000    91.23184   358.45967     3.41981    88.76816     1.54033     3.41981
    16.80000    91.23179   358.45973     3.41992    88.76821     1.54027     3.41992
    16.90000    91.23173   358.45979     3.42003    88.76827     1.54021     3.42003
    17.00000    91.23168   358.45986     3.42014    88.76832     1.54014     3.42014
    17.10000    91.23162   358.45992     3.42025    88.76838     1.54008     3.42025
    17.20000    91.23157   358.45998     3.42036    88.76843     1.54002     3.42036
    17.30000    91.23152   358.46004     3.42048    88.76848     1.53996     3.42048
    17.40000    91.23146   358.46010     3.42059    88.76854     1.53990     3.42059
    17.50000    91.23141   358.46017     3.42070    88.76859     1.53983     3.42070
    17.60000    91.23135   358.46023     3.42081    88.76865     1.53977     3.42081
    17.70000    91.23130   358.46029     3.42092    88.76870     1.53971     3.42092
    17.80000    91.23124   358.46035     3.42103    88.76876     1.53965     3.42103
    17.90000    91.23119   358.46041     3.42114    88.76881     1.53959     3.42114
    18.00000    91.23113   358.46047     3.42125    88.76887     1.53953     3.42125
    18.10000    91.23108   358.46054     3.42137    88.76892     1.53946     3.42137
    18.20000    91.23103   358.46060     3.42148    88.76897     1.53940     3.42148
    18.30000    91.23097   358.46066     3.42159    88.76903     1.53934     3.42159
    18.40000    91.23092   358.46072     3.42170    88.76908     1.53928     3.42170
    18.50000    91.23086   358.46078     3.42181    88.76914     1.53922     3.42181
    18.60000    91.23081   358.46085     3.42192    88.76919     1.53915     3.42192
    18.70000    91.23075   358.46091     3.42203    88.76925     1.53909     3.42203
    18.80000    91.23070   358.46097     3.42214    88.76930     1.53903     3.42214
    18.90000    91.23065   358.46103     3.42225    88.76935     1.53897     3.42225
    19.00000    91.23059   358.46109     3.42237    88.76941     1.53891     3.42237
    19.10000    91.23054   358.46115     3.42248    88.76946     1.53885     3.42248
    19.20000    91.23048   358.46122     3.42259    88.76952     1.53878     3.42259
    19.30000    91.23043   358.46128     3.42270    88.76957     1.53872     3.42270
    19.40000    91.23037   358.46134     3.42281    88.76963     1.53866     3.42281
    19.50000    91.23032   358.46140     3.42292    88.76968     1.53860     3.42292
    19.60000    91.23027   358.46146     3.42303    88.76973     1.53854     3.42303
    19.70000    91.23021   358.46152     3.42314    88.76979     1.53848     3.42314
    19.80000    91.23016   358.46159     3.42325    88.76984     1.53841     3.42325
    19.90000    91.23010   358.46165     3.42336    88.76990     1.53835     3.42336
    20.00000    91.23005   358.46171     3.42347    88.76995     1.53829     3.42347
    20.10000    91.22999   358.46177     3.42358    88.77001     1.53823     3.42358
    20.20000    91.22994   358.46183     3.42369    88.77006     1.53817     3.42369
    20.30000    91.22989   358.46189     3.42381    88.77011     1.53811     3.42381
    20.40000    91.22983   358.46195     3.42392    88.77017     1.53805     3.42392
    20.50000    91.22978   358.46202     3.42403    88.77022     1.53798     3.42403
    20.60000    91.22972   358.46208     3.42414    88.77028     1.53792     3.42414
    20.70000    91.22967   358.46214     3.42425    88.77033     1.53786     3.42425
    20.80000    91.22962   358.46220     3.42436    88.77038     1.53780     3.42436
    20.90000    91.22956   358.46226     3.42447    88.77044     1.53774     3.42447
    21.00000    91.22951   358.46232     3.42458    88.77049     1.53768     3.42458
    21.10000    91.22945   358.46238     3.42469    88.77055     1.53762     3.42469
    21.20000    91.22940   358.46245     3.42480    88.77060     1.53755     3.42480
    21.30000    91.22935   358.46251     3.42491    88.77065     1.53749     3.42491
    21.40000    91.22929   358.46257     3.42502    88.77071     1.53743     3.42502
    21.50000    91.22924   358.46263     3.42513    88.77076     1.53737     3.42513
    21.60000    91.22918   358.46269     3.42524    88.77082     1.53731     3.42524
    21.70000    91.22913   358.46275     3.42535    88.77087     1.53725     3.42535
    21.80000    91.22908   358.46281     3.42546    88.77092     1.53719     3.42546
    21.90000    91.22902   358.46288     3.42557    88.77098     1.53712     3.42557
    22.00000    91.22897   358.46294     3.42568    88.77103     1.53706     3.42568
    22.10000    91.22891   358.46300     3.42579    88.77109     1.53700     3.42579
    22.20000    91.22886   358.46306     3.42590    88.77114     1.53694     3.42590
    22.30000    91.22881   358.46312     3.42601    88.77119     1.53688     3.42601
    22.40000    91.22875   358.46318     3.42612    88.77125     1.53682     3.42612
    22.50000    91.22870   358.46324     3.42623    88.77130     1.53676     3.42623
    22.60000    91.22864   358.46330     3.42634    88.77136     1.53670     3.42634
    22.70000    91.22859   358.46337     3.42645    88.77141     1.53663     3.42645
    22.80000    91.22854   358.46343     3.42656    88.77146     1.53657     3.42656
    22.90000    91.22848   358.46349     3.42667    88.77152     1.53651     3.42667
    23.00000    91.22843   358.46355     3.42678    88.77157     1.53645     3.42678
    23.10000    91.22837   358.46361     3.42689    88.77163     1.53639     3.42689
    23.20000    91.22832   358.46367     3.42700    88.77168     1.53633     3.42700
    23.30000    91.22827   358.46373     3.42711    88.77173     1.53627     3.42711
