 # applied field (T), theta (degree), phi (degree), abs for RE 3-4
     0.00000     0.45917   315.00000     4.69637     0.45917   225.00000     4.69637
     0.10000     0.74324   333.26217     4.69643     0.31511   272.66310     4.69630
     0.20000     1.05999   341.06846     4.69649     0.46721   319.30246     4.69623
     0.30000     1.38708   345.24734     4.69654     0.75390   337.02062     4.69615
     0.40000     1.71853   347.82838     4.69659     1.07247   344.65618     4.69607
     0.50000     2.05217   349.57705     4.69663     1.40160   348.76666     4.69598
     0.60000     2.38706   350.83987     4.69667     1.73551   351.31474     4.69588
     0.70000     2.72272   351.79524     4.69670     2.07209   353.04559     4.69578
     0.80000     3.05890   352.54400     4.69673     2.41043   354.29812     4.69568
     0.90000     3.39544   353.14734     4.69675     2.75004   355.24739     4.69557
     1.00000     3.73227   353.64452     4.69677     3.09069   355.99262     4.69546
     1.10000     4.06934   354.06183     4.69678     3.43222   356.59412     4.69534
     1.20000     4.40663   354.41755     4.69679     3.77457   357.09063     4.69522
     1.30000     4.74412   354.72479     4.69679     4.11767   357.50814     4.69509
     1.40000     5.08181   354.99316     4.69679     4.46150   357.86473     4.69496
     1.50000     5.41971   355.22990     4.69678     4.80606   358.17338     4.69482
     1.60000     5.75782   355.44054     4.69677     5.15134   358.44362     4.69467
     1.70000     6.09617   355.62941     4.69675     5.49735   358.68262     4.69453
     1.80000     6.43477   355.79991     4.69672     5.84409   358.89589     4.69438
     1.90000     6.77363   355.95477     4.69669     6.19158   359.08769     4.69422
     2.00000     7.16071   356.11518     4.69665     6.58910   359.28468     4.69403
     2.10000     7.50020   356.24347     4.69661     6.93824   359.44106     4.69387
     2.20000     7.84002   356.36181     4.69657     7.28818   359.58453     4.69370
     2.30000     8.18019   356.47142     4.69652     7.63894   359.71686     4.69352
     2.40000     8.56888   356.58715     4.69645     8.04028   359.85612     4.69332
     2.50000     8.90987   356.68132     4.69639     8.39285   359.96914     4.69313
     2.60000     9.29955   356.78148     4.69632     8.79631     0.08921     4.69292
     2.70000     9.64147   356.86353     4.69625     9.15079     0.18752     4.69272
     2.80000    10.03227   356.95136     4.69616     9.55648     0.29280     4.69250
     2.90000    10.37522   357.02372     4.69608     9.91296     0.37964     4.69229
     3.00000    10.76725   357.10158     4.69598    10.32098     0.47329     4.69206
     3.10000    11.16000   357.17490     4.69587    10.73029     0.56172     4.69182
     3.20000    11.50473   357.23574     4.69577    11.09000     0.63534     4.69160
     3.30000    11.89890   357.30164     4.69565    11.50179     0.71542     4.69135
     3.40000    12.29387   357.36409     4.69553    11.91496     0.79171     4.69110
     3.50000    12.68968   357.42338     4.69540    12.32951     0.86455     4.69084
     3.60000    13.08637   357.47979     4.69526    12.74549     0.93428     4.69057
     3.70000    13.53326   357.53999     4.69510    13.21470     1.00929     4.69027
     3.80000    13.93191   357.59098     4.69495    13.63378     1.07329     4.69000
     3.90000    14.33154   357.63969     4.69479    14.05436     1.13496     4.68972
     4.00000    14.78186   357.69193     4.69461    14.52883     1.20172     4.68941
     4.10000    15.18368   357.73635     4.69444    14.95266     1.25903     4.68912
     4.20000    15.63653   357.78409     4.69424    15.43085     1.32130     4.68880
     4.30000    16.09080   357.82969     4.69404    15.91105     1.38147     4.68848
     4.40000    16.54651   357.87329     4.69383    16.39329     1.43971     4.68815
     4.50000    17.00372   357.91501     4.69361    16.87758     1.49618     4.68781
     4.60000    17.46246   357.95498     4.69339    17.36396     1.55099     4.68748
     4.70000    17.97361   357.99740     4.69313    17.90639     1.61007     4.68710
     4.80000    18.48675   358.03789     4.69286    18.45145     1.66740     4.68672
     4.90000    19.00196   358.07658     4.69259    18.99914     1.72311     4.68634
     5.00000    19.51927   358.11355     4.69231    19.54949     1.77731     4.68596
     5.10000    20.03875   358.14889     4.69202    20.10251     1.83010     4.68557
     5.20000    20.61234   358.18595     4.69169    20.71352     1.88661     4.68515
     5.30000    21.18868   358.22123     4.69136    21.32778     1.94162     4.68473
     5.40000    21.76782   358.25481     4.69102    21.94528     1.99521     4.68431
     5.50000    22.40251   358.28957     4.69063    22.62225     2.05215     4.68385
     5.60000    23.04069   358.32248     4.69024    23.30306     2.10758     4.68340
     5.70000    23.73572   358.35612     4.68981    24.04456     2.16602     4.68291
     5.80000    24.43498   358.38776     4.68937    24.79049     2.22287     4.68243
     5.90000    25.19257   358.41967     4.68888    25.59838     2.28239     4.68192
     6.00000    26.00962   358.45146     4.68835    26.46920     2.34430     4.68138
     6.10000    26.88742   358.48272     4.68778    27.40395     2.40828     4.68083
     6.20000    90.68394   357.02748     4.67840    89.31606     2.97252     4.67840
     6.30000    90.68383   357.02788     4.67838    89.31617     2.97212     4.67838
     6.40000    90.68372   357.02829     4.67836    89.31628     2.97171     4.67836
     6.50000    90.68361   357.02869     4.67833    89.31639     2.97131     4.67833
     6.60000    90.68350   357.02910     4.67831    89.31650     2.97090     4.67831
     6.70000    90.68339   357.02950     4.67829    89.31661     2.97050     4.67829
     6.80000    90.68328   357.02991     4.67827    89.31672     2.97009     4.67827
     6.90000    90.68318   357.03031     4.67825    89.31682     2.96969     4.67825
     7.00000    90.68307   357.03072     4.67822    89.31693     2.96928     4.67822
     7.10000    90.68296   357.03112     4.67820    89.31704     2.96888     4.67820
     7.20000    90.68285   357.03153     4.67818    89.31715     2.96847     4.67818
     7.30000    90.68274   357.03193     4.67816    89.31726     2.96807     4.67816
     7.40000    90.68263   357.03234     4.67814    89.31737     2.96766     4.67814
     7.50000    90.68253   357.03274     4.67812    89.31747     2.96726     4.67812
     7.60000    90.68242   357.03314     4.67809    89.31758     2.96686     4.67809
     7.70000    90.68231   357.03355     4.67807    89.31769     2.96645     4.67807
     7.80000    90.68220   357.03395     4.67805    89.31780     2.96605     4.67805
     7.90000    90.68209   357.03435     4.67803    89.31791     2.96565     4.67803
     8.00000    90.68199   357.03476     4.67801    89.31801     2.96524     4.67801
     8.10000    90.68188   357.03516     4.67798    89.31812     2.96484     4.67798
     8.20000    90.68177   357.03556     4.67796    89.31823     2.96444     4.67796
     8.30000    90.68166   357.03597     4.67794    89.31834     2.96403     4.67794
     8.40000    90.68155   357.03637     4.67792    89.31845     2.96363     4.67792
     8.50000    90.68145   357.03677     4.67790    89.31855     2.96323     4.67790
     8.60000    90.68134   357.03717     4.67788    89.31866     2.96283     4.67788
     8.70000    90.68123   357.03758     4.67785    89.31877     2.96242     4.67785
     8.80000    90.68112   357.03798     4.67783    89.31888     2.96202     4.67783
     8.90000    90.68101   357.03838     4.67781    89.31899     2.96162     4.67781
     9.00000    90.68091   357.03878     4.67779    89.31909     2.96122     4.67779
     9.10000    90.68080   357.03918     4.67777    89.31920     2.96082     4.67777
     9.20000    90.68069   357.03959     4.67774    89.31931     2.96041     4.67774
     9.30000    90.68058   357.03999     4.67772    89.31942     2.96001     4.67772
     9.40000    90.68048   357.04039     4.67770    89.31952     2.95961     4.67770
     9.50000    90.68037   357.04079     4.67768    89.31963     2.95921     4.67768
     9.60000    90.68026   357.04119     4.67766    89.31974     2.95881     4.67766
     9.70000    90.68015   357.04159     4.67763    89.31985     2.95841     4.67763
     9.80000    90.68005   357.04199     4.67761    89.31995     2.95801     4.67761
     9.90000    90.67994   357.04239     4.67759    89.32006     2.95761     4.67759
    10.00000    90.67983   357.04279     4.67757    89.32017     2.95721     4.67757
    10.10000    90.67972   357.04319     4.67755    89.32028     2.95681     4.67755
    10.20000    90.67962   357.04359     4.67752    89.32038     2.95641     4.67752
    10.30000    90.67951   357.04399     4.67750    89.32049     2.95601     4.67750
    10.40000    90.67940   357.04439     4.67748    89.32060     2.95561     4.67748
    10.50000    90.67930   357.04479     4.67746    89.32070     2.95521     4.67746
    10.60000    90.67919   357.04519     4.67744    89.32081     2.95481     4.67744
    10.70000    90.67908   357.04559     4.67742    89.32092     2.95441     4.67742
    10.80000    90.67897   357.04599     4.67739    89.32103     2.95401     4.67739
    10.90000    90.67887   357.04639     4.67737    89.32113     2.95361     4.67737
    11.00000    90.67876   357.04679     4.67735    89.32124     2.95321     4.67735
    11.10000    90.67865   357.04719     4.67733    89.32135     2.95281     4.67733
    11.20000    90.67855   357.04759     4.67731    89.32145     2.95241     4.67731
    11.30000    90.67844   357.04799     4.67728    89.32156     2.95201     4.67728
    11.40000    90.67833   357.04838     4.67726    89.32167     2.95162     4.67726
    11.50000    90.67823   357.04878     4.67724    89.32177     2.95122     4.67724
    11.60000    90.67812   357.04918     4.67722    89.32188     2.95082     4.67722
    11.70000    90.67801   357.04958     4.67720    89.32199     2.95042     4.67720
    11.80000    90.67791   357.04998     4.67717    89.32209     2.95002     4.67717
    11.90000    90.67780   357.05037     4.67715    89.32220     2.94963     4.67715
    12.00000    90.67769   357.05077     4.67713    89.32231     2.94923     4.67713
    12.10000    90.67759   357.05117     4.67711    89.32241     2.94883     4.67711
    12.20000    90.67748   357.05157     4.67709    89.32252     2.94843     4.67709
    12.30000    90.67737   357.05196     4.67706    89.32263     2.94804     4.67706
    12.40000    90.67727   357.05236     4.67704    89.32273     2.94764     4.67704
    12.50000    90.67716   357.05276     4.67702    89.32284     2.94724     4.67702
    12.60000    90.67705   357.05316     4.67700    89.32295     2.94684     4.67700
    12.70000    90.67695   357.05355     4.67698    89.32305     2.94645     4.67698
    12.80000    90.67684   357.05395     4.67695    89.32316     2.94605     4.67695
    12.90000    90.67674   357.05434     4.67693    89.32326     2.94566     4.67693
    13.00000    90.67663   357.05474     4.67691    89.32337     2.94526     4.67691
    13.10000    90.67652   357.05514     4.67689    89.32348     2.94486     4.67689
    13.20000    90.67642   357.05553     4.67687    89.32358     2.94447     4.67687
    13.30000    90.67631   357.05593     4.67684    89.32369     2.94407     4.67684
    13.40000    90.67621   357.05632     4.67682    89.32379     2.94368     4.67682
    13.50000    90.67610   357.05672     4.67680    89.32390     2.94328     4.67680
    13.60000    90.67599   357.05712     4.67678    89.32401     2.94288     4.67678
    13.70000    90.67589   357.05751     4.67676    89.32411     2.94249     4.67676
    13.80000    90.67578   357.05791     4.67673    89.32422     2.94209     4.67673
    13.90000    90.67568   357.05830     4.67671    89.32432     2.94170     4.67671
    14.00000    90.67557   357.05870     4.67669    89.32443     2.94130     4.67669
    14.10000    90.67546   357.05909     4.67667    89.32454     2.94091     4.67667
    14.20000    90.67536   357.05949     4.67665    89.32464     2.94051     4.67665
    14.30000    90.67525   357.05988     4.67662    89.32475     2.94012     4.67662
    14.40000    90.67515   357.06027     4.67660    89.32485     2.93973     4.67660
    14.50000    90.67504   357.06067     4.67658    89.32496     2.93933     4.67658
    14.60000    90.67494   357.06106     4.67656    89.32506     2.93894     4.67656
    14.70000    90.67483   357.06146     4.67654    89.32517     2.93854     4.67654
    14.80000    90.67472   357.06185     4.67651    89.32528     2.93815     4.67651
    14.90000    90.67462   357.06224     4.67649    89.32538     2.93776     4.67649
    15.00000    90.67451   357.06264     4.67647    89.32549     2.93736     4.67647
    15.10000    90.67441   357.06303     4.67645    89.32559     2.93697     4.67645
    15.20000    90.67430   357.06342     4.67643    89.32570     2.93658     4.67643
    15.30000    90.67420   357.06382     4.67640    89.32580     2.93618     4.67640
    15.40000    90.67409   357.06421     4.67638    89.32591     2.93579     4.67638
    15.50000    90.67399   357.06460     4.67636    89.32601     2.93540     4.67636
    15.60000    90.67388   357.06500     4.67634    89.32612     2.93500     4.67634
    15.70000    90.67378   357.06539     4.67632    89.32622     2.93461     4.67632
    15.80000    90.67367   357.06578     4.67629    89.32633     2.93422     4.67629
    15.90000    90.67357   357.06617     4.67627    89.32643     2.93383     4.67627
    16.00000    90.67346   357.06657     4.67625    89.32654     2.93343     4.67625
    16.10000    90.67336   357.06696     4.67623    89.32664     2.93304     4.67623
    16.20000    90.67325   357.06735     4.67621    89.32675     2.93265     4.67621
    16.30000    90.67315   357.06774     4.67618    89.32685     2.93226     4.67618
    16.40000    90.67304   357.06813     4.67616    89.32696     2.93187     4.67616
    16.50000    90.67294   357.06852     4.67614    89.32706     2.93148     4.67614
    16.60000    90.67283   357.06892     4.67612    89.32717     2.93108     4.67612
    16.70000    90.67273   357.06931     4.67609    89.32727     2.93069     4.67609
    16.80000    90.67262   357.06970     4.67607    89.32738     2.93030     4.67607
    16.90000    90.67252   357.07009     4.67605    89.32748     2.92991     4.67605
    17.00000    90.67241   357.07048     4.67603    89.32759     2.92952     4.67603
    17.10000    90.67231   357.07087     4.67601    89.32769     2.92913     4.67601
    17.20000    90.67220   357.07126     4.67598    89.32780     2.92874     4.67598
    17.30000    90.67210   357.07165     4.67596    89.32790     2.92835     4.67596
    17.40000    90.67199   357.07204     4.67594    89.32801     2.92796     4.67594
    17.50000    90.67189   357.07243     4.67592    89.32811     2.92757     4.67592
    17.60000    90.67179   357.07282     4.67590    89.32821     2.92718     4.67590
    17.70000    90.67168   357.07321     4.67587    89.32832     2.92679     4.67587
    17.80000    90.67158   357.07360     4.67585    89.32842     2.92640     4.67585
    17.90000    90.67147   357.07399     4.67583    89.32853     2.92601     4.67583
    18.00000    90.67137   357.07438     4.67581    89.32863     2.92562     4.67581
    18.10000    90.67126   357.07477     4.67579    89.32874     2.92523     4.67579
    18.20000    90.67116   357.07516     4.67576    89.32884     2.92484     4.67576
    18.30000    90.67106   357.07555     4.67574    89.32894     2.92445     4.67574
    18.40000    90.67095   357.07594     4.67572    89.32905     2.92406     4.67572
    18.50000    90.67085   357.07633     4.67570    89.32915     2.92367     4.67570
    18.60000    90.67074   357.07671     4.67567    89.32926     2.92329     4.67567
    18.70000    90.67064   357.07710     4.67565    89.32936     2.92290     4.67565
    18.80000    90.67053   357.07749     4.67563    89.32947     2.92251     4.67563
    18.90000    90.67043   357.07788     4.67561    89.32957     2.92212     4.67561
    19.00000    90.67033   357.07827     4.67559    89.32967     2.92173     4.67559
    19.10000    90.67022   357.07866     4.67556    89.32978     2.92134     4.67556
    19.20000    90.67012   357.07904     4.67554    89.32988     2.92096     4.67554
    19.30000    90.67001   357.07943     4.67552    89.32999     2.92057     4.67552
    19.40000    90.66991   357.07982     4.67550    89.33009     2.92018     4.67550
    19.50000    90.66981   357.08021     4.67548    89.33019     2.91979     4.67548
    19.60000    90.66970   357.08059     4.67545    89.33030     2.91941     4.67545
    19.70000    90.66960   357.08098     4.67543    89.33040     2.91902     4.67543
    19.80000    90.66950   357.08137     4.67541    89.33050     2.91863     4.67541
    19.90000    90.66939   357.08175     4.67539    89.33061     2.91825     4.67539
    20.00000    90.66929   357.08214     4.67536    89.33071     2.91786     4.67536
    20.10000    90.66919   357.08253     4.67534    89.33081     2.91747     4.67534
    20.20000    90.66908   357.08291     4.67532    89.33092     2.91709     4.67532
    20.30000    90.66898   357.08330     4.67530    89.33102     2.91670     4.67530
    20.40000    90.66887   357.08369     4.67528    89.33113     2.91631     4.67528
    20.50000    90.66877   357.08407     4.67525    89.33123     2.91593     4.67525
    20.60000    90.66867   357.08446     4.67523    89.33133     2.91554     4.67523
    20.70000    90.66856   357.08485     4.67521    89.33144     2.91515     4.67521
    20.80000    90.66846   357.08523     4.67519    89.33154     2.91477     4.67519
    20.90000    90.66836   357.08562     4.67516    89.33164     2.91438     4.67516
    21.00000    90.66825   357.08600     4.67514    89.33175     2.91400     4.67514
    21.10000    90.66815   357.08639     4.67512    89.33185     2.91361     4.67512
    21.20000    90.66805   357.08677     4.67510    89.33195     2.91323     4.67510
    21.30000    90.66795   357.08716     4.67508    89.33205     2.91284     4.67508
    21.40000    90.66784   357.08754     4.67505    89.33216     2.91246     4.67505
    21.50000    90.66774   357.08793     4.67503    89.33226     2.91207     4.67503
    21.60000    90.66764   357.08831     4.67501    89.33236     2.91169     4.67501
    21.70000    90.66753   357.08870     4.67499    89.33247     2.91130     4.67499
    21.80000    90.66743   357.08908     4.67496    89.33257     2.91092     4.67496
    21.90000    90.66733   357.08946     4.67494    89.33267     2.91054     4.67494
    22.00000    90.66722   357.08985     4.67492    89.33278     2.91015     4.67492
    22.10000    90.66712   357.09023     4.67490    89.33288     2.90977     4.67490
    22.20000    90.66702   357.09062     4.67488    89.33298     2.90938     4.67488
    22.30000    90.66692   357.09100     4.67485    89.33308     2.90900     4.67485
    22.40000    90.66681   357.09138     4.67483    89.33319     2.90862     4.67483
    22.50000    90.66671   357.09177     4.67481    89.33329     2.90823     4.67481
    22.60000    90.66661   357.09215     4.67479    89.33339     2.90785     4.67479
    22.70000    90.66650   357.09253     4.67476    89.33350     2.90747     4.67476
    22.80000    90.66640   357.09292     4.67474    89.33360     2.90708     4.67474
    22.90000    90.66630   357.09330     4.67472    89.33370     2.90670     4.67472
    23.00000    90.66620   357.09368     4.67470    89.33380     2.90632     4.67470
    23.10000    90.66609   357.09407     4.67468    89.33391     2.90593     4.67468
    23.20000    90.66599   357.09445     4.67465    89.33401     2.90555     4.67465
    23.30000    90.66589   357.09483     4.67463    89.33411     2.90517     4.67463
