 # applied field (T), theta (degree), phi (degree), abs for RE 3-4
     0.00000     0.00000     0.00000     4.71764     0.00000     0.00000     4.71764
     0.10000     0.14846   360.00000     4.71764     0.17966   360.00000     4.71764
     0.20000     0.29692   360.00000     4.71763     0.35933   360.00000     4.71763
     0.30000     0.40897   360.00000     4.71763     0.49491   360.00000     4.71763
     0.40000     0.55745   360.00000     4.71763     0.67459   360.00000     4.71763
     0.50000     0.70594   360.00000     4.71762     0.85428   360.00000     4.71762
     0.60000     0.85444   360.00000     4.71761     1.03398   360.00000     4.71761
     0.70000     0.96654   360.00000     4.71761     1.16960   360.00000     4.71761
     0.80000     1.11508   360.00000     4.71760     1.34933   360.00000     4.71759
     0.90000     1.26365   360.00000     4.71759     1.52908   360.00000     4.71758
     1.00000     1.41224   360.00000     4.71758     1.70886   360.00000     4.71757
     1.10000     1.52441   360.00000     4.71757     1.84454   360.00000     4.71756
     1.20000     1.67307   360.00000     4.71755     2.02437   360.00000     4.71754
     1.30000     1.82176   360.00000     4.71754     2.20422   360.00000     4.71752
     1.40000     1.97050   360.00000     4.71752     2.38411   360.00000     4.71750
     1.50000     2.11928   360.00000     4.71750     2.56404   360.00000     4.71748
     1.60000     2.23160   360.00000     4.71748     2.69984   360.00000     4.71747
     1.70000     2.38046   360.00000     4.71746     2.87984   360.00000     4.71744
     1.80000     2.52939   360.00000     4.71744     3.05989   360.00000     4.71742
     1.90000     2.67837   360.00000     4.71742     3.23998   360.00000     4.71739
     2.00000     2.79084   360.00000     4.71740     3.37591   360.00000     4.71737
     2.10000     2.93993   360.00000     4.71737     3.55609   360.00000     4.71734
     2.20000     3.08909   360.00000     4.71735     3.73633   360.00000     4.71731
     2.30000     3.23832   360.00000     4.71732     3.91662   360.00000     4.71728
     2.40000     3.35099   360.00000     4.71729     4.05271   360.00000     4.71726
     2.50000     3.50036   360.00000     4.71726     4.23311   360.00000     4.71722
     2.60000     3.64980   360.00000     4.71723     4.41358   360.00000     4.71719
     2.70000     3.79932   360.00000     4.71720     4.59412   360.00000     4.71715
     2.80000     3.94893   360.00000     4.71716     4.77472   360.00000     4.71711
     2.90000     4.06191   360.00000     4.71713     4.91106   360.00000     4.71708
     3.00000     4.21168   360.00000     4.71710     5.09180   360.00000     4.71704
     3.10000     4.36156   360.00000     4.71706     5.27261   360.00000     4.71699
     3.20000     4.51153   360.00000     4.71702     5.45351   360.00000     4.71695
     3.30000     4.62478   360.00000     4.71698     5.59007   360.00000     4.71692
     3.40000     4.77494   360.00000     4.71694     5.77111   360.00000     4.71687
     3.50000     4.92520   360.00000     4.71690     5.95225   360.00000     4.71682
     3.60000     5.07558   360.00000     4.71685     6.13347   360.00000     4.71677
     3.70000     5.18916   360.00000     4.71682     6.27029   360.00000     4.71673
     3.80000     5.33974   360.00000     4.71677     6.45168   360.00000     4.71668
     3.90000     5.49045   360.00000     4.71672     6.63317   360.00000     4.71663
     4.00000     5.64129   360.00000     4.71667     6.81476   360.00000     4.71657
     4.10000     5.79226   360.00000     4.71662     6.99646   360.00000     4.71651
     4.20000     5.90629   360.00000     4.71658     7.13363   360.00000     4.71647
     4.30000     6.05749   360.00000     4.71652     7.31552   360.00000     4.71641
     4.40000     6.20884   360.00000     4.71647     7.49751   360.00000     4.71635
     4.50000     6.36033   360.00000     4.71641     7.67962   360.00000     4.71629
     4.60000     6.47476   360.00000     4.71636     7.81712   360.00000     4.71624
     4.70000     6.62651   360.00000     4.71631     7.99943   360.00000     4.71618
     4.80000     6.77842   360.00000     4.71624     8.18187   360.00000     4.71611
     4.90000     6.93048   360.00000     4.71618     8.36443   360.00000     4.71604
     5.00000     7.08271   360.00000     4.71612     8.54712   360.00000     4.71597
     5.10000     7.19771   360.00000     4.71607     8.68506   360.00000     4.71592
     5.20000     7.35022   360.00000     4.71600     8.86797   360.00000     4.71585
     5.30000     7.50291   360.00000     4.71593     9.05102   360.00000     4.71578
     5.40000     7.65577   360.00000     4.71587     9.23421   360.00000     4.71570
     5.50000     7.80882   360.00000     4.71580     9.41754   360.00000     4.71563
     5.60000     7.92444   360.00000     4.71574     9.55596   360.00000     4.71557
     5.70000     8.07781   360.00000     4.71567     9.73954   360.00000     4.71549
     5.80000     8.23136   360.00000     4.71559     9.92326   360.00000     4.71541
     5.90000     8.38511   360.00000     4.71552    10.10713   360.00000     4.71533
     6.00000     8.50127   360.00000     4.71546    10.24596   360.00000     4.71527
     6.10000     8.65537   360.00000     4.71538    10.43010   360.00000     4.71519
     6.20000     8.80967   360.00000     4.71530    10.61439   360.00000     4.71510
     6.30000     8.96418   360.00000     4.71522    10.79884   360.00000     4.71502
     6.40000     9.11889   360.00000     4.71514    10.98345   360.00000     4.71493
     6.50000     9.23580   360.00000     4.71507    11.12285   360.00000     4.71487
     6.60000     9.39090   360.00000     4.71499    11.30775   360.00000     4.71478
     6.70000     9.54622   360.00000     4.71490    11.49281   360.00000     4.71469
     6.80000     9.70176   360.00000     4.71481    11.67805   360.00000     4.71460
     6.90000     9.85754   360.00000     4.71473    11.86345   360.00000     4.71450
     7.00000     9.97525   360.00000     4.71466    12.00346   360.00000     4.71443
     7.10000    10.13144   360.00000     4.71456    12.18917   360.00000     4.71434
     7.20000    10.28786   360.00000     4.71447    12.37506   360.00000     4.71424
     7.30000    10.44454   360.00000     4.71438    12.56114   360.00000     4.71414
     7.40000    10.60146   360.00000     4.71428    12.74739   360.00000     4.71404
     7.50000    10.72005   360.00000     4.71421    12.88805   360.00000     4.71397
     7.60000    10.87741   360.00000     4.71411    13.07463   360.00000     4.71387
     7.70000    11.03504   360.00000     4.71401    13.26141   360.00000     4.71377
     7.80000    11.19292   360.00000     4.71391    13.44837   360.00000     4.71366
     7.90000    11.35108   360.00000     4.71380    13.63553   360.00000     4.71356
     8.00000    11.47062   360.00000     4.71372    13.77688   360.00000     4.71348
     8.10000    11.62925   360.00000     4.71362    13.96438   360.00000     4.71337
     8.20000    11.78816   360.00000     4.71351    14.15209   360.00000     4.71326
     8.30000    11.94736   360.00000     4.71340    14.34000   360.00000     4.71315
     8.40000    12.10684   360.00000     4.71329    14.52812   360.00000     4.71304
     8.50000    12.26662   360.00000     4.71318    14.71644   360.00000     4.71293
     8.60000    12.38739   360.00000     4.71310    14.85867   360.00000     4.71285
     8.70000    12.54769   360.00000     4.71298    15.04736   360.00000     4.71273
     8.80000    12.70829   360.00000     4.71287    15.23627   360.00000     4.71262
     8.90000    12.86919   360.00000     4.71275    15.42540   360.00000     4.71250
     9.00000    13.03041   360.00000     4.71263    15.61474   360.00000     4.71239
     9.10000    13.15228   360.00000     4.71254    15.75774   360.00000     4.71230
     9.20000    13.31406   360.00000     4.71242    15.94747   360.00000     4.71218
     9.30000    13.47615   360.00000     4.71230    16.13742   360.00000     4.71206
     9.40000    13.63858   360.00000     4.71217    16.32760   360.00000     4.71194
     9.50000    13.80133   360.00000     4.71205    16.51801   360.00000     4.71182
     9.60000    13.96442   360.00000     4.71192    16.70865   360.00000     4.71169
     9.70000    14.08773   360.00000     4.71182    16.85263   360.00000     4.71160
     9.80000    14.25142   360.00000     4.71169    17.04368   360.00000     4.71147
     9.90000    14.41546   360.00000     4.71156    17.23496   360.00000     4.71135
    10.00000    14.57986   360.00000     4.71143    17.42648   360.00000     4.71122
    10.10000    14.74461   360.00000     4.71130    17.61824   360.00000     4.71109
    10.20000    14.90972   360.00000     4.71116    17.81025   360.00000     4.71096
    10.30000    15.07520   360.00000     4.71102    18.00250   360.00000     4.71083
    10.40000    15.20032   360.00000     4.71092    18.14769   360.00000     4.71073
    10.50000    15.36646   360.00000     4.71078    18.34037   360.00000     4.71060
    10.60000    15.53297   360.00000     4.71064    18.53330   360.00000     4.71047
    10.70000    15.69986   360.00000     4.71050    18.72648   360.00000     4.71034
    10.80000    15.86714   360.00000     4.71035    18.91992   360.00000     4.71020
    10.90000    16.03482   360.00000     4.71021    19.11361   360.00000     4.71007
    11.00000    16.20289   360.00000     4.71006    19.30755   360.00000     4.70993
    11.10000    16.32999   360.00000     4.70995    19.45403   360.00000     4.70983
    11.20000    16.49877   360.00000     4.70980    19.64843   360.00000     4.70969
    11.30000    16.66796   360.00000     4.70964    19.84310   360.00000     4.70955
    11.40000    16.83756   360.00000     4.70949    20.03802   360.00000     4.70941
    11.50000    17.00759   360.00000     4.70934    20.23321   360.00000     4.70927
    11.60000    17.17804   360.00000     4.70918    20.42867   360.00000     4.70913
    11.70000    17.34891   360.00000     4.70902    20.62440   360.00000     4.70899
    11.80000    17.52023   360.00000     4.70886    20.82039   360.00000     4.70884
    11.90000    17.64979   360.00000     4.70874    20.96842   360.00000     4.70873
    12.00000    17.82187   360.00000     4.70858    21.16490   360.00000     4.70859
    12.10000    17.99440   360.00000     4.70842    21.36165   360.00000     4.70844
    12.20000    18.16739   360.00000     4.70825    21.55868   360.00000     4.70830
    12.30000    18.34083   360.00000     4.70809    21.75598   360.00000     4.70815
    12.40000    18.51473   360.00000     4.70792    21.95357   360.00000     4.70800
    12.50000    18.68910   360.00000     4.70775    22.15144   360.00000     4.70786
    12.60000    18.86394   360.00000     4.70758    22.34959   360.00000     4.70771
    12.70000    19.03925   360.00000     4.70741    22.54802   360.00000     4.70756
    12.80000    19.21505   360.00000     4.70723    22.74674   360.00000     4.70741
    12.90000    19.34803   360.00000     4.70710    22.89683   360.00000     4.70729
    13.00000    19.52468   360.00000     4.70692    23.09606   360.00000     4.70714
    13.10000    19.70183   360.00000     4.70674    23.29557   360.00000     4.70699
    13.20000    19.87948   360.00000     4.70656    23.49538   360.00000     4.70683
    13.30000    20.05764   360.00000     4.70638    23.69548   360.00000     4.70668
    13.40000    20.23630   360.00000     4.70620    23.89588   360.00000     4.70653
    13.50000    20.41548   360.00000     4.70602    24.09657   360.00000     4.70637
    13.60000    20.59519   360.00000     4.70583    24.29756   360.00000     4.70622
    13.70000    20.77541   360.00000     4.70564    24.49885   360.00000     4.70606
    13.80000    20.95617   360.00000     4.70545    24.70044   360.00000     4.70590
    13.90000    21.13746   360.00000     4.70526    24.90233   360.00000     4.70575
    14.00000    21.31930   360.00000     4.70507    25.10452   360.00000     4.70559
    14.10000    21.50168   360.00000     4.70488    25.30701   360.00000     4.70543
    14.20000    21.68461   360.00000     4.70468    25.50981   360.00000     4.70527
    14.30000    21.86810   360.00000     4.70449    25.71292   360.00000     4.70511
    14.40000    22.05215   360.00000     4.70429    25.91634   360.00000     4.70495
    14.50000    22.23677   360.00000     4.70409    26.12006   360.00000     4.70479
    14.60000    22.42196   360.00000     4.70389    26.32410   360.00000     4.70463
    14.70000    22.60772   360.00000     4.70369    26.52844   360.00000     4.70447
    14.80000    22.79407   360.00000     4.70348    26.73310   360.00000     4.70431
    14.90000    22.98101   360.00000     4.70328    26.93807   360.00000     4.70415
    15.00000    23.16854   360.00000     4.70307    27.14336   360.00000     4.70398
    15.10000    23.35667   360.00000     4.70286    27.34896   360.00000     4.70382
    15.20000    23.54540   360.00000     4.70265    27.55488   360.00000     4.70366
    15.30000    23.73474   360.00000     4.70244    27.76111   360.00000     4.70349
    15.40000    23.92469   360.00000     4.70223    27.96767   360.00000     4.70333
    15.50000    24.11526   360.00000     4.70202    28.17454   360.00000     4.70316
    15.60000    24.30646   360.00000     4.70180    28.38174   360.00000     4.70300
    15.70000    24.49828   360.00000     4.70158    28.58926   360.00000     4.70283
    15.80000    24.69074   360.00000     4.70136    28.79710   360.00000     4.70266
    15.90000    24.88384   360.00000     4.70115    29.00527   360.00000     4.70250
    16.00000    25.07759   360.00000     4.70092    29.21376   360.00000     4.70233
    16.10000    25.27198   360.00000     4.70070    29.42257   360.00000     4.70216
    16.20000    25.46703   360.00000     4.70048    29.63171   360.00000     4.70200
    16.30000    25.66275   360.00000     4.70025    29.84118   360.00000     4.70183
    16.40000    25.85912   360.00000     4.70003    30.05098   360.00000     4.70166
    16.50000    26.10466   360.00000     4.69974    30.31284   360.00000     4.70145
    16.60000    26.30255   360.00000     4.69951    30.52338   360.00000     4.70129
    16.70000    26.50113   360.00000     4.69928    30.73426   360.00000     4.70112
    16.80000    26.70039   360.00000     4.69905    30.94546   360.00000     4.70095
    16.90000    26.90034   360.00000     4.69882    31.15700   360.00000     4.70078
    17.00000    27.10100   360.00000     4.69858    31.36887   360.00000     4.70061
    17.10000    27.30235   360.00000     4.69834    31.58108   360.00000     4.70044
    17.20000    27.50441   360.00000     4.69811    31.79362   360.00000     4.70027
    17.30000    27.75710   360.00000     4.69781    32.05892   360.00000     4.70006
    17.40000    27.96077   360.00000     4.69757    32.27222   360.00000     4.69989
    17.50000    28.16517   360.00000     4.69733    32.48586   360.00000     4.69972
    17.60000    28.37029   360.00000     4.69709    32.69984   360.00000     4.69955
    17.70000    28.57615   360.00000     4.69684    32.91416   360.00000     4.69938
    17.80000    28.83361   360.00000     4.69654    33.18168   360.00000     4.69917
    17.90000    29.04113   360.00000     4.69629    33.39677   360.00000     4.69900
    18.00000    29.24941   360.00000     4.69605    33.61220   360.00000     4.69882
    18.10000    29.45843   360.00000     4.69580    33.82796   360.00000     4.69865
    18.20000    29.66822   360.00000     4.69555    34.04408   360.00000     4.69848
    18.30000    29.93061   360.00000     4.69524    34.31386   360.00000     4.69827
    18.40000    30.14212   360.00000     4.69498    34.53075   360.00000     4.69810
    18.50000    30.35440   360.00000     4.69473    34.74798   360.00000     4.69793
    18.60000    30.61993   360.00000     4.69442    35.01917   360.00000     4.69771
    18.70000    30.83396   360.00000     4.69416    35.23718   360.00000     4.69754
    18.80000    31.04878   360.00000     4.69390    35.45555   360.00000     4.69737
    18.90000    31.31750   360.00000     4.69359    35.72815   360.00000     4.69716
    19.00000    31.53411   360.00000     4.69333    35.94730   360.00000     4.69698
    19.10000    31.75152   360.00000     4.69307    36.16680   360.00000     4.69681
    19.20000    32.02349   360.00000     4.69275    36.44083   360.00000     4.69660
    19.30000    32.24271   360.00000     4.69249    36.66112   360.00000     4.69643
    19.40000    32.46275   360.00000     4.69222    36.88177   360.00000     4.69625
    19.50000    32.73801   360.00000     4.69190    37.15723   360.00000     4.69604
    19.60000    32.95989   360.00000     4.69164    37.37867   360.00000     4.69587
    19.70000    33.23747   360.00000     4.69131    37.65514   360.00000     4.69565
    19.80000    33.46121   360.00000     4.69104    37.87738   360.00000     4.69548
    19.90000    33.74112   360.00000     4.69072    38.15485   360.00000     4.69527
    20.00000    33.96674   360.00000     4.69045    38.37790   360.00000     4.69510
    20.10000    34.24901   360.00000     4.69012    38.65638   360.00000     4.69488
    20.20000    34.47652   360.00000     4.68985    38.88023   360.00000     4.69471
    20.30000    34.76116   360.00000     4.68952    39.15972   360.00000     4.69450
    20.40000    34.99059   360.00000     4.68925    39.38439   360.00000     4.69432
    20.50000    35.27762   360.00000     4.68892    39.66490   360.00000     4.69411
    20.60000    35.50897   360.00000     4.68865    39.89038   360.00000     4.69394
    20.70000    35.79841   360.00000     4.68832    40.17192   360.00000     4.69372
    20.80000    36.08920   360.00000     4.68799    40.45403   360.00000     4.69351
    20.90000    36.32356   360.00000     4.68772    40.68078   360.00000     4.69334
    21.00000    36.61679   360.00000     4.68738    40.96392   360.00000     4.69312
    21.10000    36.91136   360.00000     4.68705    41.24764   360.00000     4.69291
    21.20000    37.14876   360.00000     4.68678    41.47568   360.00000     4.69274
    21.30000    37.44579   360.00000     4.68644    41.76044   360.00000     4.69252
    21.40000    37.74418   360.00000     4.68611    42.04578   360.00000     4.69231
    21.50000    38.04393   360.00000     4.68578    42.33171   360.00000     4.69210
    21.60000    38.28549   360.00000     4.68551    42.56151   360.00000     4.69192
    21.70000    38.58771   360.00000     4.68517    42.84849   360.00000     4.69171
    21.80000    38.89131   360.00000     4.68484    43.13605   360.00000     4.69150
    21.90000    39.19627   360.00000     4.68451    43.42421   360.00000     4.69128
    22.00000    39.50261   360.00000     4.68418    43.71296   360.00000     4.69107
    22.10000    39.81032   360.00000     4.68385    44.00230   360.00000     4.69085
    22.20000    40.11941   360.00000     4.68352    44.29224   360.00000     4.69064
    22.30000    40.42987   360.00000     4.68319    44.58277   360.00000     4.69043
    22.40000    40.74170   360.00000     4.68286    44.87391   360.00000     4.69021
    22.50000    41.05490   360.00000     4.68254    45.16565   360.00000     4.69000
    22.60000    41.36947   360.00000     4.68221    45.45800   360.00000     4.68978
    22.70000    41.68541   360.00000     4.68189    45.75095   360.00000     4.68957
    22.80000    42.00271   360.00000     4.68156    46.04451   360.00000     4.68935
    22.90000    42.38450   360.00000     4.68118    46.39697   360.00000     4.68910
    23.00000    42.70478   360.00000     4.68086    46.69189   360.00000     4.68888
    23.10000    43.02642   360.00000     4.68055    46.98742   360.00000     4.68867
    23.20000    43.34941   360.00000     4.68023    47.28358   360.00000     4.68845
    23.30000    43.73800   360.00000     4.67986    47.63917   360.00000     4.68820
