 # applied field (T), theta (degree), phi (degree), abs [muB/unitcell], abs [T]
       0.00000000       0.00000000       0.00000000      53.73150349       1.84887100
       0.10000000       0.39839128     360.00000000      53.73150565       1.84887108
       0.20000000       0.79678362     360.00000000      53.73151214       1.84887130
       0.30000000       1.13834936     360.00000000      53.73152159       1.84887163
       0.40000000       1.53674641     360.00000000      53.73153629       1.84887213
       0.50000000       1.93514751     360.00000000      53.73155534       1.84887279
       0.60000000       2.33355369     360.00000000      53.73157876       1.84887359
       0.70000000       2.67513449     360.00000000      53.73160335       1.84887444
       0.80000000       3.07355289     360.00000000      53.73163510       1.84887553
       0.90000000       3.47197936     360.00000000      53.73167129       1.84887678
       1.00000000       3.87041495     360.00000000      53.73171195       1.84887818
       1.10000000       4.26886069     360.00000000      53.73175711       1.84887973
       1.20000000       4.66731763     360.00000000      53.73180681       1.84888144
       1.30000000       5.00894671     360.00000000      53.73185496       1.84888310
       1.40000000       5.40742718     360.00000000      53.73191335       1.84888511
       1.50000000       5.80592181     360.00000000      53.73197642       1.84888728
       1.60000000       6.20443162     360.00000000      53.73204420       1.84888961
       1.70000000       6.60295766     360.00000000      53.73211675       1.84889210
       1.80000000       7.00150094     360.00000000      53.73219412       1.84889477
       1.90000000       7.40006249     360.00000000      53.73227638       1.84889760
       2.00000000       7.79864332     360.00000000      53.73236358       1.84890060
       2.10000000       8.19724447     360.00000000      53.73245579       1.84890377
       2.20000000       8.59586693     360.00000000      53.73255307       1.84890712
       2.30000000       8.99451172     360.00000000      53.73265549       1.84891064
       2.40000000       9.39317985     360.00000000      53.73276312       1.84891435
       2.50000000       9.79187231     360.00000000      53.73287603       1.84891823
       2.60000000      10.19059009     360.00000000      53.73299428       1.84892230
       2.70000000      10.58933420     360.00000000      53.73311796       1.84892656
       2.80000000      11.04499086     360.00000000      53.73326197       1.84893151
       2.90000000      11.44379472     360.00000000      53.73339738       1.84893617
       3.00000000      11.84262797     360.00000000      53.73353845       1.84894102
       3.10000000      12.24149159     360.00000000      53.73368525       1.84894608
       3.20000000      12.69728994     360.00000000      53.73385550       1.84895193
       3.30000000      13.09622188     360.00000000      53.73401471       1.84895741
       3.40000000      13.55210092     360.00000000      53.73419906       1.84896376
       3.50000000      13.95110553     360.00000000      53.73437102       1.84896967
       3.60000000      14.40707017     360.00000000      53.73456986       1.84897651
       3.70000000      14.80615168     360.00000000      53.73475491       1.84898288
       3.80000000      15.26220674     360.00000000      53.73496862       1.84899024
       3.90000000      15.71831199     360.00000000      53.73519036       1.84899787
       4.00000000      16.17446874     360.00000000      53.73542021       1.84900577
       4.10000000      16.63067830     360.00000000      53.73565828       1.84901397
       4.20000000      17.08694195     360.00000000      53.73590465       1.84902244
       4.30000000      17.54326094     360.00000000      53.73615941       1.84903121
       4.40000000      17.99963652     360.00000000      53.73642265       1.84904027
       4.50000000      18.45606988     360.00000000      53.73669442       1.84904962
       4.60000000      18.91256222     360.00000000      53.73697480       1.84905927
       4.70000000      19.42611544     360.00000000      53.73729479       1.84907028
       4.80000000      19.88273701     360.00000000      53.73759354       1.84908056
       4.90000000      20.39643865     360.00000000      53.73793408       1.84909228
       5.00000000      20.91022114     360.00000000      53.73828553       1.84910437
       5.10000000      21.42408594     360.00000000      53.73864791       1.84911684
       5.20000000      21.93803449     360.00000000      53.73902123       1.84912968
       5.30000000      22.45206814     360.00000000      53.73940550       1.84914291
       5.40000000      22.96618820     360.00000000      53.73980069       1.84915650
       5.50000000      23.53747188     360.00000000      53.74024664       1.84917185
       5.60000000      24.10886565     360.00000000      53.74070573       1.84918765
       5.70000000      24.68037101     360.00000000      53.74117787       1.84920389
       5.80000000      25.25198937     360.00000000      53.74166289       1.84922058
       5.90000000      25.82372200     360.00000000      53.74216062       1.84923771
       6.00000000      26.45270469     360.00000000      53.74271683       1.84925685
       6.10000000      27.08182879     360.00000000      53.74328767       1.84927649
       6.20000000      27.71109549     360.00000000      53.74387272       1.84929662
       6.30000000      28.39768113     360.00000000      53.74452131       1.84931894
       6.40000000      29.14163022     360.00000000      53.74523659       1.84934355
       6.50000000      29.82857585     360.00000000      53.74591686       1.84936696
       6.60000000      30.63013956     360.00000000      53.74671807       1.84939453
       6.70000000      31.43194043     360.00000000      53.74753676       1.84942270
       6.80000000      32.29123635     360.00000000      53.74842720       1.84945334
       6.90000000      33.20808084     360.00000000      53.74939065       1.84948649
       7.00000000      34.18252940     360.00000000      53.75042755       1.84952217
       7.10000000      35.27195947     360.00000000      53.75159572       1.84956236
       7.20000000      90.00000000     360.00000000      53.77202767       1.85026542
       7.30000000      90.00000000     360.00000000      53.77207149       1.85026692
       7.40000000      90.00000000     360.00000000      53.77211532       1.85026843
       7.50000000      90.00000000     360.00000000      53.77215916       1.85026994
       7.60000000      90.00000000     360.00000000      53.77220300       1.85027145
       7.70000000      90.00000000     360.00000000      53.77224685       1.85027296
       7.80000000      90.00000000     360.00000000      53.77229070       1.85027447
       7.90000000      90.00000000     360.00000000      53.77233455       1.85027598
       8.00000000      90.00000000     360.00000000      53.77237842       1.85027749
       8.10000000      90.00000000     360.00000000      53.77242228       1.85027900
       8.20000000      90.00000000     360.00000000      53.77246616       1.85028050
       8.30000000      90.00000000     360.00000000      53.77251004       1.85028201
       8.40000000      90.00000000     360.00000000      53.77255392       1.85028352
       8.50000000      90.00000000     360.00000000      53.77259781       1.85028503
       8.60000000      90.00000000     360.00000000      53.77264170       1.85028655
       8.70000000      90.00000000     360.00000000      53.77268560       1.85028806
       8.80000000      90.00000000     360.00000000      53.77272951       1.85028957
       8.90000000      90.00000000     360.00000000      53.77277342       1.85029108
       9.00000000      90.00000000     360.00000000      53.77281733       1.85029259
       9.10000000      90.00000000     360.00000000      53.77286126       1.85029410
       9.20000000      90.00000000     360.00000000      53.77290518       1.85029561
       9.30000000      90.00000000     360.00000000      53.77294911       1.85029712
       9.40000000      90.00000000     360.00000000      53.77299305       1.85029863
       9.50000000      90.00000000     360.00000000      53.77303699       1.85030015
       9.60000000      90.00000000     360.00000000      53.77308094       1.85030166
       9.70000000      90.00000000     360.00000000      53.77312490       1.85030317
       9.80000000      90.00000000     360.00000000      53.77316886       1.85030468
       9.90000000      90.00000000     360.00000000      53.77321282       1.85030620
      10.00000000      90.00000000     360.00000000      53.77325679       1.85030771
      10.10000000      90.00000000     360.00000000      53.77330076       1.85030922
      10.20000000      90.00000000     360.00000000      53.77334475       1.85031074
      10.30000000      90.00000000     360.00000000      53.77338873       1.85031225
      10.40000000      90.00000000     360.00000000      53.77343272       1.85031376
      10.50000000      90.00000000     360.00000000      53.77347672       1.85031528
      10.60000000      90.00000000     360.00000000      53.77352072       1.85031679
      10.70000000      90.00000000     360.00000000      53.77356473       1.85031831
      10.80000000      90.00000000     360.00000000      53.77360874       1.85031982
      10.90000000      90.00000000     360.00000000      53.77365276       1.85032134
      11.00000000      90.00000000     360.00000000      53.77369678       1.85032285
      11.10000000      90.00000000     360.00000000      53.77374081       1.85032436
      11.20000000      90.00000000     360.00000000      53.77378485       1.85032588
      11.30000000      90.00000000     360.00000000      53.77382889       1.85032740
      11.40000000      90.00000000     360.00000000      53.77387293       1.85032891
      11.50000000      90.00000000     360.00000000      53.77391698       1.85033043
      11.60000000      90.00000000     360.00000000      53.77396104       1.85033194
      11.70000000      90.00000000     360.00000000      53.77400510       1.85033346
      11.80000000      90.00000000     360.00000000      53.77404917       1.85033498
      11.90000000      90.00000000     360.00000000      53.77409324       1.85033649
      12.00000000      90.00000000     360.00000000      53.77413732       1.85033801
      12.10000000      90.00000000     360.00000000      53.77418140       1.85033953
      12.20000000      90.00000000     360.00000000      53.77422549       1.85034104
      12.30000000      90.00000000     360.00000000      53.77426959       1.85034256
      12.40000000      90.00000000     360.00000000      53.77431369       1.85034408
      12.50000000      90.00000000     360.00000000      53.77435779       1.85034559
      12.60000000      90.00000000     360.00000000      53.77440190       1.85034711
      12.70000000      90.00000000     360.00000000      53.77444602       1.85034863
      12.80000000      90.00000000     360.00000000      53.77449014       1.85035015
      12.90000000      90.00000000     360.00000000      53.77453426       1.85035167
      13.00000000      90.00000000     360.00000000      53.77457840       1.85035319
      13.10000000      90.00000000     360.00000000      53.77462253       1.85035470
      13.20000000      90.00000000     360.00000000      53.77466668       1.85035622
      13.30000000      90.00000000     360.00000000      53.77471082       1.85035774
      13.40000000      90.00000000     360.00000000      53.77475498       1.85035926
      13.50000000      90.00000000     360.00000000      53.77479914       1.85036078
      13.60000000      90.00000000     360.00000000      53.77484330       1.85036230
      13.70000000      90.00000000     360.00000000      53.77488747       1.85036382
      13.80000000      90.00000000     360.00000000      53.77493165       1.85036534
      13.90000000      90.00000000     360.00000000      53.77497583       1.85036686
      14.00000000      90.00000000     360.00000000      53.77502001       1.85036838
      14.10000000      90.00000000     360.00000000      53.77506421       1.85036990
      14.20000000      90.00000000     360.00000000      53.77510840       1.85037142
      14.30000000      90.00000000     360.00000000      53.77515261       1.85037294
      14.40000000      90.00000000     360.00000000      53.77519681       1.85037447
      14.50000000      90.00000000     360.00000000      53.77524103       1.85037599
      14.60000000      90.00000000     360.00000000      53.77528525       1.85037751
      14.70000000      90.00000000     360.00000000      53.77532947       1.85037903
      14.80000000      90.00000000     360.00000000      53.77537370       1.85038055
      14.90000000      90.00000000     360.00000000      53.77541794       1.85038207
      15.00000000      90.00000000     360.00000000      53.77546218       1.85038360
      15.10000000      90.00000000     360.00000000      53.77550642       1.85038512
      15.20000000      90.00000000     360.00000000      53.77555067       1.85038664
      15.30000000      90.00000000     360.00000000      53.77559493       1.85038816
      15.40000000      90.00000000     360.00000000      53.77563919       1.85038969
      15.50000000      90.00000000     360.00000000      53.77568346       1.85039121
      15.60000000      90.00000000     360.00000000      53.77572773       1.85039273
      15.70000000      90.00000000     360.00000000      53.77577201       1.85039426
      15.80000000      90.00000000     360.00000000      53.77581630       1.85039578
      15.90000000      90.00000000     360.00000000      53.77586059       1.85039731
      16.00000000      90.00000000     360.00000000      53.77590488       1.85039883
      16.10000000      90.00000000     360.00000000      53.77594918       1.85040035
      16.20000000      90.00000000     360.00000000      53.77599349       1.85040188
      16.30000000      90.00000000     360.00000000      53.77603780       1.85040340
      16.40000000      90.00000000     360.00000000      53.77608212       1.85040493
      16.50000000      90.00000000     360.00000000      53.77612644       1.85040645
      16.60000000      90.00000000     360.00000000      53.77617077       1.85040798
      16.70000000      90.00000000     360.00000000      53.77621510       1.85040950
      16.80000000      90.00000000     360.00000000      53.77625944       1.85041103
      16.90000000      90.00000000     360.00000000      53.77630378       1.85041256
      17.00000000      90.00000000     360.00000000      53.77634813       1.85041408
      17.10000000      90.00000000     360.00000000      53.77639249       1.85041561
      17.20000000      90.00000000     360.00000000      53.77643685       1.85041713
      17.30000000      90.00000000     360.00000000      53.77648122       1.85041866
      17.40000000      90.00000000     360.00000000      53.77652559       1.85042019
      17.50000000      90.00000000     360.00000000      53.77656996       1.85042171
      17.60000000      90.00000000     360.00000000      53.77661435       1.85042324
      17.70000000      90.00000000     360.00000000      53.77665873       1.85042477
      17.80000000      90.00000000     360.00000000      53.77670313       1.85042630
      17.90000000      90.00000000     360.00000000      53.77674753       1.85042782
      18.00000000      90.00000000     360.00000000      53.77679193       1.85042935
      18.10000000      90.00000000     360.00000000      53.77683634       1.85043088
      18.20000000      90.00000000     360.00000000      53.77688076       1.85043241
      18.30000000      90.00000000     360.00000000      53.77692518       1.85043394
      18.40000000      90.00000000     360.00000000      53.77696960       1.85043547
      18.50000000      90.00000000     360.00000000      53.77701403       1.85043699
      18.60000000      90.00000000     360.00000000      53.77705847       1.85043852
      18.70000000      90.00000000     360.00000000      53.77710291       1.85044005
      18.80000000      90.00000000     360.00000000      53.77714736       1.85044158
      18.90000000      90.00000000     360.00000000      53.77719182       1.85044311
      19.00000000      90.00000000     360.00000000      53.77723628       1.85044464
      19.10000000      90.00000000     360.00000000      53.77728074       1.85044617
      19.20000000      90.00000000     360.00000000      53.77732521       1.85044770
      19.30000000      90.00000000     360.00000000      53.77736969       1.85044923
      19.40000000      90.00000000     360.00000000      53.77741417       1.85045076
      19.50000000      90.00000000     360.00000000      53.77745865       1.85045229
      19.60000000      90.00000000     360.00000000      53.77750314       1.85045382
      19.70000000      90.00000000     360.00000000      53.77754764       1.85045536
      19.80000000      90.00000000     360.00000000      53.77759215       1.85045689
      19.90000000      90.00000000     360.00000000      53.77763665       1.85045842
      20.00000000      90.00000000     360.00000000      53.77768117       1.85045995
      20.10000000      90.00000000     360.00000000      53.77772569       1.85046148
      20.20000000      90.00000000     360.00000000      53.77777021       1.85046301
      20.30000000      90.00000000     360.00000000      53.77781474       1.85046455
      20.40000000      90.00000000     360.00000000      53.77785928       1.85046608
      20.50000000      90.00000000     360.00000000      53.77790382       1.85046761
      20.60000000      90.00000000     360.00000000      53.77794837       1.85046914
      20.70000000      90.00000000     360.00000000      53.77799292       1.85047068
      20.80000000      90.00000000     360.00000000      53.77803748       1.85047221
      20.90000000      90.00000000     360.00000000      53.77808204       1.85047374
      21.00000000      90.00000000     360.00000000      53.77812661       1.85047528
      21.10000000      90.00000000     360.00000000      53.77817118       1.85047681
      21.20000000      90.00000000     360.00000000      53.77821576       1.85047835
      21.30000000      90.00000000     360.00000000      53.77826035       1.85047988
      21.40000000      90.00000000     360.00000000      53.77830494       1.85048141
      21.50000000      90.00000000     360.00000000      53.77834954       1.85048295
      21.60000000      90.00000000     360.00000000      53.77839414       1.85048448
      21.70000000      90.00000000     360.00000000      53.77843875       1.85048602
      21.80000000      90.00000000     360.00000000      53.77848336       1.85048755
      21.90000000      90.00000000     360.00000000      53.77852798       1.85048909
      22.00000000      90.00000000     360.00000000      53.77857260       1.85049062
      22.10000000      90.00000000     360.00000000      53.77861723       1.85049216
      22.20000000      90.00000000     360.00000000      53.77866187       1.85049370
      22.30000000      90.00000000     360.00000000      53.77870651       1.85049523
      22.40000000      90.00000000     360.00000000      53.77875115       1.85049677
      22.50000000      90.00000000     360.00000000      53.77879580       1.85049830
      22.60000000      90.00000000     360.00000000      53.77884046       1.85049984
      22.70000000      90.00000000     360.00000000      53.77888512       1.85050138
      22.80000000      90.00000000     360.00000000      53.77892979       1.85050291
      22.90000000      90.00000000     360.00000000      53.77897446       1.85050445
      23.00000000      90.00000000     360.00000000      53.77901914       1.85050599
