 # applied field (T), theta (degree), phi (degree), abs [muB/unitcell], abs [T]
       0.00000000      90.00000000      44.57145966      39.41065170       1.37238782
       0.10000000      90.00000000     360.00000000      39.40956661       1.37235004
       0.20000000      90.00000000     360.00000000      39.40982721       1.37235911
       0.30000000      90.00000000     360.00000000      39.41008780       1.37236819
       0.40000000      90.00000000     360.00000000      39.41034836       1.37237726
       0.50000000      90.00000000     360.00000000      39.41060891       1.37238633
       0.60000000      90.00000000     360.00000000      39.41086944       1.37239540
       0.70000000      90.00000000     360.00000000      39.41112996       1.37240448
       0.80000000      90.00000000     360.00000000      39.41139046       1.37241355
       0.90000000      90.00000000     360.00000000      39.41165094       1.37242262
       1.00000000      90.00000000     360.00000000      39.41191140       1.37243169
       1.10000000      90.00000000     360.00000000      39.41217185       1.37244076
       1.20000000      90.00000000     360.00000000      39.41243227       1.37244983
       1.30000000      90.00000000     360.00000000      39.41269268       1.37245889
       1.40000000      90.00000000     360.00000000      39.41295308       1.37246796
       1.50000000      90.00000000     360.00000000      39.41321346       1.37247703
       1.60000000      90.00000000     360.00000000      39.41347382       1.37248610
       1.70000000      90.00000000     360.00000000      39.41373416       1.37249516
       1.80000000      90.00000000     360.00000000      39.41399448       1.37250423
       1.90000000      90.00000000     360.00000000      39.41425479       1.37251329
       2.00000000      90.00000000     360.00000000      39.41451508       1.37252236
       2.10000000      90.00000000     360.00000000      39.41477536       1.37253142
       2.20000000      90.00000000     360.00000000      39.41503561       1.37254048
       2.30000000      90.00000000     360.00000000      39.41529585       1.37254954
       2.40000000      90.00000000     360.00000000      39.41555608       1.37255861
       2.50000000      90.00000000     360.00000000      39.41581628       1.37256767
       2.60000000      90.00000000     360.00000000      39.41607647       1.37257673
       2.70000000      90.00000000     360.00000000      39.41633664       1.37258579
       2.80000000      90.00000000     360.00000000      39.41659680       1.37259485
       2.90000000      90.00000000     360.00000000      39.41685694       1.37260391
       3.00000000      90.00000000     360.00000000      39.41711706       1.37261296
       3.10000000      90.00000000     360.00000000      39.41737716       1.37262202
       3.20000000      90.00000000     360.00000000      39.41763725       1.37263108
       3.30000000      90.00000000     360.00000000      39.41789732       1.37264013
       3.40000000      90.00000000     360.00000000      39.41815737       1.37264919
       3.50000000      90.00000000     360.00000000      39.41841741       1.37265825
       3.60000000      90.00000000     360.00000000      39.41867743       1.37266730
       3.70000000      90.00000000     360.00000000      39.41893743       1.37267635
       3.80000000      90.00000000     360.00000000      39.41919741       1.37268541
       3.90000000      90.00000000     360.00000000      39.41945738       1.37269446
       4.00000000      90.00000000     360.00000000      39.41971733       1.37270351
       4.10000000      90.00000000     360.00000000      39.41997727       1.37271256
       4.20000000      90.00000000     360.00000000      39.42023718       1.37272162
       4.30000000      90.00000000     360.00000000      39.42049709       1.37273067
       4.40000000      90.00000000     360.00000000      39.42075697       1.37273972
       4.50000000      90.00000000     360.00000000      39.42101684       1.37274876
       4.60000000      90.00000000     360.00000000      39.42127669       1.37275781
       4.70000000      90.00000000     360.00000000      39.42153652       1.37276686
       4.80000000      90.00000000     360.00000000      39.42179634       1.37277591
       4.90000000      90.00000000     360.00000000      39.42205614       1.37278496
       5.00000000      90.00000000     360.00000000      39.42231592       1.37279400
       5.10000000      90.00000000     360.00000000      39.42257569       1.37280305
       5.20000000      90.00000000     360.00000000      39.42283543       1.37281209
       5.30000000      90.00000000     360.00000000      39.42309517       1.37282114
       5.40000000      90.00000000     360.00000000      39.42335488       1.37283018
       5.50000000      90.00000000     360.00000000      39.42361458       1.37283923
       5.60000000      90.00000000     360.00000000      39.42387426       1.37284827
       5.70000000      90.00000000     360.00000000      39.42413393       1.37285731
       5.80000000      90.00000000     360.00000000      39.42439358       1.37286635
       5.90000000      90.00000000     360.00000000      39.42465321       1.37287539
       6.00000000      90.00000000     360.00000000      39.42491283       1.37288443
       6.10000000      90.00000000     360.00000000      39.42517243       1.37289347
       6.20000000      90.00000000     360.00000000      39.42543201       1.37290251
       6.30000000      90.00000000     360.00000000      39.42569157       1.37291155
       6.40000000      90.00000000     360.00000000      39.42595112       1.37292059
       6.50000000      90.00000000     360.00000000      39.42621066       1.37292963
       6.60000000      90.00000000     360.00000000      39.42647017       1.37293866
       6.70000000      90.00000000     360.00000000      39.42672967       1.37294770
       6.80000000      90.00000000     360.00000000      39.42698915       1.37295674
       6.90000000      90.00000000     360.00000000      39.42724862       1.37296577
       7.00000000      90.00000000     360.00000000      39.42750807       1.37297481
       7.10000000      90.00000000     360.00000000      39.42776750       1.37298384
       7.20000000      90.00000000     360.00000000      39.42802692       1.37299288
       7.30000000      90.00000000     360.00000000      39.42828632       1.37300191
       7.40000000      90.00000000     360.00000000      39.42854570       1.37301094
       7.50000000      90.00000000     360.00000000      39.42880507       1.37301997
       7.60000000      90.00000000     360.00000000      39.42906442       1.37302900
       7.70000000      90.00000000     360.00000000      39.42932375       1.37303803
       7.80000000      90.00000000     360.00000000      39.42958307       1.37304706
       7.90000000      90.00000000     360.00000000      39.42984237       1.37305609
       8.00000000      90.00000000     360.00000000      39.43010165       1.37306512
       8.10000000      90.00000000     360.00000000      39.43036092       1.37307415
       8.20000000      90.00000000     360.00000000      39.43062017       1.37308318
       8.30000000      90.00000000     360.00000000      39.43087941       1.37309221
       8.40000000      90.00000000     360.00000000      39.43113863       1.37310123
       8.50000000      90.00000000     360.00000000      39.43139783       1.37311026
       8.60000000      90.00000000     360.00000000      39.43165701       1.37311929
       8.70000000      90.00000000     360.00000000      39.43191618       1.37312831
       8.80000000      90.00000000     360.00000000      39.43217534       1.37313733
       8.90000000      90.00000000     360.00000000      39.43243447       1.37314636
       9.00000000      90.00000000     360.00000000      39.43269359       1.37315538
       9.10000000      90.00000000     360.00000000      39.43295270       1.37316440
       9.20000000      90.00000000     360.00000000      39.43321178       1.37317343
       9.30000000      90.00000000     360.00000000      39.43347085       1.37318245
       9.40000000      90.00000000     360.00000000      39.43372991       1.37319147
       9.50000000      90.00000000     360.00000000      39.43398895       1.37320049
       9.60000000      90.00000000     360.00000000      39.43424797       1.37320951
       9.70000000      90.00000000     360.00000000      39.43450698       1.37321853
       9.80000000      90.00000000     360.00000000      39.43476597       1.37322755
       9.90000000      90.00000000     360.00000000      39.43502494       1.37323657
      10.00000000      90.00000000     360.00000000      39.43528390       1.37324558
      10.10000000      90.00000000     360.00000000      39.43554284       1.37325460
      10.20000000      90.00000000     360.00000000      39.43580176       1.37326362
      10.30000000      90.00000000     360.00000000      39.43606067       1.37327263
      10.40000000      90.00000000     360.00000000      39.43631956       1.37328165
      10.50000000      90.00000000     360.00000000      39.43657844       1.37329066
      10.60000000      90.00000000     360.00000000      39.43683730       1.37329968
      10.70000000      90.00000000     360.00000000      39.43709614       1.37330869
      10.80000000      90.00000000     360.00000000      39.43735497       1.37331770
      10.90000000      90.00000000     360.00000000      39.43761378       1.37332672
      11.00000000      90.00000000     360.00000000      39.43787257       1.37333573
      11.10000000      90.00000000     360.00000000      39.43813135       1.37334474
      11.20000000      90.00000000     360.00000000      39.43839012       1.37335375
      11.30000000      90.00000000     360.00000000      39.43864886       1.37336276
      11.40000000      90.00000000     360.00000000      39.43890759       1.37337177
      11.50000000      90.00000000     360.00000000      39.43916631       1.37338078
      11.60000000      90.00000000     360.00000000      39.43942501       1.37338979
      11.70000000      90.00000000     360.00000000      39.43968369       1.37339880
      11.80000000      90.00000000     360.00000000      39.43994235       1.37340780
      11.90000000      90.00000000     360.00000000      39.44020100       1.37341681
      12.00000000      90.00000000     360.00000000      39.44045964       1.37342582
      12.10000000      90.00000000     360.00000000      39.44071826       1.37343482
      12.20000000      90.00000000     360.00000000      39.44097686       1.37344383
      12.30000000      90.00000000     360.00000000      39.44123544       1.37345283
      12.40000000      90.00000000     360.00000000      39.44149401       1.37346184
      12.50000000      90.00000000     360.00000000      39.44175257       1.37347084
      12.60000000      90.00000000     360.00000000      39.44201111       1.37347984
      12.70000000      90.00000000     360.00000000      39.44226963       1.37348885
      12.80000000      90.00000000     360.00000000      39.44252813       1.37349785
      12.90000000      90.00000000     360.00000000      39.44278662       1.37350685
      13.00000000      90.00000000     360.00000000      39.44304510       1.37351585
      13.10000000      90.00000000     360.00000000      39.44330356       1.37352485
      13.20000000      90.00000000     360.00000000      39.44356200       1.37353385
      13.30000000      90.00000000     360.00000000      39.44382042       1.37354285
      13.40000000      90.00000000     360.00000000      39.44407883       1.37355185
      13.50000000      90.00000000     360.00000000      39.44433723       1.37356085
      13.60000000      90.00000000     360.00000000      39.44459561       1.37356984
      13.70000000      90.00000000     360.00000000      39.44485397       1.37357884
      13.80000000      90.00000000     360.00000000      39.44511232       1.37358784
      13.90000000      90.00000000     360.00000000      39.44537065       1.37359683
      14.00000000      90.00000000     360.00000000      39.44562896       1.37360583
      14.10000000      90.00000000     360.00000000      39.44588726       1.37361482
      14.20000000      90.00000000     360.00000000      39.44614555       1.37362382
      14.30000000      90.00000000     360.00000000      39.44640382       1.37363281
      14.40000000      90.00000000     360.00000000      39.44666207       1.37364180
      14.50000000      90.00000000     360.00000000      39.44692030       1.37365080
      14.60000000      90.00000000     360.00000000      39.44717852       1.37365979
      14.70000000      90.00000000     360.00000000      39.44743673       1.37366878
      14.80000000      90.00000000     360.00000000      39.44769492       1.37367777
      14.90000000      90.00000000     360.00000000      39.44795309       1.37368676
      15.00000000      90.00000000     360.00000000      39.44821125       1.37369575
      15.10000000      90.00000000     360.00000000      39.44846939       1.37370474
      15.20000000      90.00000000     360.00000000      39.44872752       1.37371373
      15.30000000      90.00000000     360.00000000      39.44898563       1.37372272
      15.40000000      90.00000000     360.00000000      39.44924372       1.37373170
      15.50000000      90.00000000     360.00000000      39.44950180       1.37374069
      15.60000000      90.00000000     360.00000000      39.44975986       1.37374968
      15.70000000      90.00000000     360.00000000      39.45001791       1.37375866
      15.80000000      90.00000000     360.00000000      39.45027594       1.37376765
      15.90000000      90.00000000     360.00000000      39.45053396       1.37377663
      16.00000000      90.00000000     360.00000000      39.45079196       1.37378562
      16.10000000      90.00000000     360.00000000      39.45104995       1.37379460
      16.20000000      90.00000000     360.00000000      39.45130792       1.37380358
      16.30000000      90.00000000     360.00000000      39.45156587       1.37381257
      16.40000000      90.00000000     360.00000000      39.45182381       1.37382155
      16.50000000      90.00000000     360.00000000      39.45208173       1.37383053
      16.60000000      90.00000000     360.00000000      39.45233964       1.37383951
      16.70000000      90.00000000     360.00000000      39.45259753       1.37384849
      16.80000000      90.00000000     360.00000000      39.45285541       1.37385747
      16.90000000      90.00000000     360.00000000      39.45311327       1.37386645
      17.00000000      90.00000000     360.00000000      39.45337111       1.37387543
      17.10000000      90.00000000     360.00000000      39.45362894       1.37388441
      17.20000000      90.00000000     360.00000000      39.45388676       1.37389339
      17.30000000      90.00000000     360.00000000      39.45414455       1.37390236
      17.40000000      90.00000000     360.00000000      39.45440234       1.37391134
      17.50000000      90.00000000     360.00000000      39.45466011       1.37392032
      17.60000000      90.00000000     360.00000000      39.45491786       1.37392929
      17.70000000      90.00000000     360.00000000      39.45517559       1.37393827
      17.80000000      90.00000000     360.00000000      39.45543332       1.37394724
      17.90000000      90.00000000     360.00000000      39.45569102       1.37395622
      18.00000000      90.00000000     360.00000000      39.45594871       1.37396519
      18.10000000      90.00000000     360.00000000      39.45620639       1.37397416
      18.20000000      90.00000000     360.00000000      39.45646405       1.37398313
      18.30000000      90.00000000     360.00000000      39.45672169       1.37399211
      18.40000000      90.00000000     360.00000000      39.45697932       1.37400108
      18.50000000      90.00000000     360.00000000      39.45723693       1.37401005
      18.60000000      90.00000000     360.00000000      39.45749453       1.37401902
      18.70000000      90.00000000     360.00000000      39.45775212       1.37402799
      18.80000000      90.00000000     360.00000000      39.45800968       1.37403696
      18.90000000      90.00000000     360.00000000      39.45826724       1.37404593
      19.00000000      90.00000000     360.00000000      39.45852477       1.37405489
      19.10000000      90.00000000     360.00000000      39.45878229       1.37406386
      19.20000000      90.00000000     360.00000000      39.45903980       1.37407283
      19.30000000      90.00000000     360.00000000      39.45929729       1.37408180
      19.40000000      90.00000000     360.00000000      39.45955477       1.37409076
      19.50000000      90.00000000     360.00000000      39.45981223       1.37409973
      19.60000000      90.00000000     360.00000000      39.46006967       1.37410869
      19.70000000      90.00000000     360.00000000      39.46032710       1.37411766
      19.80000000      90.00000000     360.00000000      39.46058452       1.37412662
      19.90000000      90.00000000     360.00000000      39.46084192       1.37413558
      20.00000000      90.00000000     360.00000000      39.46109930       1.37414455
      20.10000000      90.00000000     360.00000000      39.46135667       1.37415351
      20.20000000      90.00000000     360.00000000      39.46161403       1.37416247
      20.30000000      90.00000000     360.00000000      39.46187137       1.37417143
      20.40000000      90.00000000     360.00000000      39.46212869       1.37418039
      20.50000000      90.00000000     360.00000000      39.46238600       1.37418935
      20.60000000      90.00000000     360.00000000      39.46264329       1.37419831
      20.70000000      90.00000000     360.00000000      39.46290057       1.37420727
      20.80000000      90.00000000     360.00000000      39.46315783       1.37421623
      20.90000000      90.00000000     360.00000000      39.46341508       1.37422519
      21.00000000      90.00000000     360.00000000      39.46367231       1.37423415
      21.10000000      90.00000000     360.00000000      39.46392953       1.37424310
      21.20000000      90.00000000     360.00000000      39.46418674       1.37425206
      21.30000000      90.00000000     360.00000000      39.46444392       1.37426102
      21.40000000      90.00000000     360.00000000      39.46470110       1.37426997
      21.50000000      90.00000000     360.00000000      39.46495825       1.37427893
      21.60000000      90.00000000     360.00000000      39.46521540       1.37428788
      21.70000000      90.00000000     360.00000000      39.46547252       1.37429683
      21.80000000      90.00000000     360.00000000      39.46572964       1.37430579
      21.90000000      90.00000000     360.00000000      39.46598673       1.37431474
      22.00000000      90.00000000     360.00000000      39.46624382       1.37432369
      22.10000000      90.00000000     360.00000000      39.46650089       1.37433265
      22.20000000      90.00000000     360.00000000      39.46675794       1.37434160
      22.30000000      90.00000000     360.00000000      39.46701498       1.37435055
      22.40000000      90.00000000     360.00000000      39.46727200       1.37435950
      22.50000000      90.00000000     360.00000000      39.46752901       1.37436845
      22.60000000      90.00000000     360.00000000      39.46778600       1.37437740
      22.70000000      90.00000000     360.00000000      39.46804298       1.37438635
      22.80000000      90.00000000     360.00000000      39.46829994       1.37439529
      22.90000000      90.00000000     360.00000000      39.46855689       1.37440424
      23.00000000      90.00000000     360.00000000      39.46881382       1.37441319
