 # applied field (T), theta (degree), phi (degree), abs [muB/unitcell], abs [T]
       0.00000000       0.00000000       0.00000000      36.72364572       1.22766416
       0.10000000       1.25857485      45.00000000      36.72360429       1.22766278
       0.20000000       2.45998296      45.00000000      36.72348811       1.22765889
       0.30000000       3.71858631      45.00000000      36.72328593       1.22765214
       0.40000000       4.97721868      45.00000000      36.72300266       1.22764267
       0.50000000       6.23588965      45.00000000      36.72263967       1.22763053
       0.60000000       7.49460857      45.00000000      36.72219875       1.22761579
       0.70000000       8.75338453      45.00000000      36.72168203       1.22759852
       0.80000000      10.01222628      45.00000000      36.72109201       1.22757879
       0.90000000      11.32833604      45.00000000      36.72039768       1.22755558
       1.00000000      12.64453628      45.00000000      36.71962949       1.22752990
       1.10000000      13.96083560      45.00000000      36.71879142       1.22750189
       1.20000000      15.33444993      45.00000000      36.71784426       1.22747022
       1.30000000      16.70818957      45.00000000      36.71683051       1.22743633
       1.40000000      18.08206212      45.00000000      36.71575580       1.22740040
       1.50000000      19.51330007      45.00000000      36.71457435       1.22736091
       1.60000000      20.94469657      45.00000000      36.71333954       1.22731963
       1.70000000      22.43349681      45.00000000      36.71200263       1.22727494
       1.80000000      23.97972736      45.00000000      36.71056582       1.22722690
       1.90000000      25.52615987      45.00000000      36.70909235       1.22717765
       2.00000000      27.18732402      45.00000000      36.70747118       1.22712345
       2.10000000      28.84872676      45.00000000      36.70582924       1.22706856
       2.20000000      30.62492987      45.00000000      36.70405529       1.22700926
       2.30000000      32.45869380      45.00000000      36.70222216       1.22694798
       2.40000000      34.35004023      45.00000000      36.70034456       1.22688521
       2.50000000      36.41360730      45.00000000      36.69831974       1.22681752
       2.60000000      38.53482773      45.00000000      36.69629171       1.22674972
       2.70000000      40.88569828      45.00000000      36.69411563       1.22667698
       2.80000000      43.40896661      45.00000000      36.69189331       1.22660269
       2.90000000      46.21937559      45.00000000      36.68957578       1.22652521
       3.00000000      49.37436387      45.00000000      36.68720003       1.22644579
       3.10000000      52.98873667      45.00000000      36.68479720       1.22636547
       3.20000000      57.34942826      45.00000000      36.68236375       1.22628412
       3.30000000      63.08767374      45.00000000      36.67991288       1.22620218
       3.40000000      71.92488810      45.00000000      36.67758549       1.22612438
       3.50000000      90.00000000      45.00000000      36.67630087       1.22608143
       3.60000000      90.00000000      45.00000000      36.67655046       1.22608978
       3.70000000      90.00000000      45.00000000      36.67680004       1.22609812
       3.80000000      90.00000000      45.00000000      36.67704959       1.22610646
       3.90000000      90.00000000      45.00000000      36.67729911       1.22611481
       4.00000000      90.00000000      45.00000000      36.67754862       1.22612315
       4.10000000      90.00000000      45.00000000      36.67779810       1.22613149
       4.20000000      90.00000000      45.00000000      36.67804756       1.22613983
       4.30000000      90.00000000      45.00000000      36.67829700       1.22614816
       4.40000000      90.00000000      45.00000000      36.67854642       1.22615650
       4.50000000      90.00000000      45.00000000      36.67879581       1.22616484
       4.60000000      90.00000000      45.00000000      36.67904518       1.22617318
       4.70000000      90.00000000      45.00000000      36.67929453       1.22618151
       4.80000000      90.00000000      45.00000000      36.67954385       1.22618985
       4.90000000      90.00000000      45.00000000      36.67979316       1.22619818
       5.00000000      90.00000000      45.00000000      36.68004244       1.22620651
       5.10000000      90.00000000      45.00000000      36.68029169       1.22621485
       5.20000000      90.00000000      45.00000000      36.68054093       1.22622318
       5.30000000      90.00000000      45.00000000      36.68079014       1.22623151
       5.40000000      90.00000000      45.00000000      36.68103933       1.22623984
       5.50000000      90.00000000      45.00000000      36.68128850       1.22624817
       5.60000000      90.00000000      45.00000000      36.68153765       1.22625650
       5.70000000      90.00000000      45.00000000      36.68178677       1.22626483
       5.80000000      90.00000000      45.00000000      36.68203587       1.22627315
       5.90000000      90.00000000      45.00000000      36.68228495       1.22628148
       6.00000000      90.00000000      45.00000000      36.68253400       1.22628981
       6.10000000      90.00000000      45.00000000      36.68278304       1.22629813
       6.20000000      90.00000000      45.00000000      36.68303205       1.22630646
       6.30000000      90.00000000      45.00000000      36.68328104       1.22631478
       6.40000000      90.00000000      45.00000000      36.68353000       1.22632310
       6.50000000      90.00000000      45.00000000      36.68377895       1.22633143
       6.60000000      90.00000000      45.00000000      36.68402787       1.22633975
       6.70000000      90.00000000      45.00000000      36.68427677       1.22634807
       6.80000000      90.00000000      45.00000000      36.68452565       1.22635639
       6.90000000      90.00000000      45.00000000      36.68477450       1.22636471
       7.00000000      90.00000000      45.00000000      36.68502333       1.22637302
       7.10000000      90.00000000      45.00000000      36.68527214       1.22638134
       7.20000000      90.00000000      45.00000000      36.68552093       1.22638966
       7.30000000      90.00000000      45.00000000      36.68576970       1.22639798
       7.40000000      90.00000000      45.00000000      36.68601844       1.22640629
       7.50000000      90.00000000      45.00000000      36.68626716       1.22641461
       7.60000000      90.00000000      45.00000000      36.68651586       1.22642292
       7.70000000      90.00000000      45.00000000      36.68676453       1.22643123
       7.80000000      90.00000000      45.00000000      36.68701319       1.22643955
       7.90000000      90.00000000      45.00000000      36.68726182       1.22644786
       8.00000000      90.00000000      45.00000000      36.68751043       1.22645617
       8.10000000      90.00000000      45.00000000      36.68775902       1.22646448
       8.20000000      90.00000000      45.00000000      36.68800758       1.22647279
       8.30000000      90.00000000      45.00000000      36.68825613       1.22648110
       8.40000000      90.00000000      45.00000000      36.68850465       1.22648940
       8.50000000      90.00000000      45.00000000      36.68875315       1.22649771
       8.60000000      90.00000000      45.00000000      36.68900162       1.22650602
       8.70000000      90.00000000      45.00000000      36.68925008       1.22651432
       8.80000000      90.00000000      45.00000000      36.68949851       1.22652263
       8.90000000      90.00000000      45.00000000      36.68974692       1.22653093
       9.00000000      90.00000000      45.00000000      36.68999531       1.22653924
       9.10000000      90.00000000      45.00000000      36.69024367       1.22654754
       9.20000000      90.00000000      45.00000000      36.69049202       1.22655584
       9.30000000      90.00000000      45.00000000      36.69074034       1.22656414
       9.40000000      90.00000000      45.00000000      36.69098864       1.22657244
       9.50000000      90.00000000      45.00000000      36.69123691       1.22658074
       9.60000000      90.00000000      45.00000000      36.69148517       1.22658904
       9.70000000      90.00000000      45.00000000      36.69173340       1.22659734
       9.80000000      90.00000000      45.00000000      36.69198161       1.22660564
       9.90000000      90.00000000      45.00000000      36.69222980       1.22661394
      10.00000000      90.00000000      45.00000000      36.69247797       1.22662223
      10.10000000      90.00000000      45.00000000      36.69272611       1.22663053
      10.20000000      90.00000000      45.00000000      36.69297424       1.22663882
      10.30000000      90.00000000      45.00000000      36.69322234       1.22664712
      10.40000000      90.00000000      45.00000000      36.69347042       1.22665541
      10.50000000      90.00000000      45.00000000      36.69371847       1.22666370
      10.60000000      90.00000000      45.00000000      36.69396651       1.22667199
      10.70000000      90.00000000      45.00000000      36.69421452       1.22668028
      10.80000000      90.00000000      45.00000000      36.69446251       1.22668857
      10.90000000      90.00000000      45.00000000      36.69471048       1.22669686
      11.00000000      90.00000000      45.00000000      36.69495843       1.22670515
      11.10000000      90.00000000      45.00000000      36.69520635       1.22671344
      11.20000000      90.00000000      45.00000000      36.69545425       1.22672173
      11.30000000      90.00000000      45.00000000      36.69570214       1.22673001
      11.40000000      90.00000000      45.00000000      36.69594999       1.22673830
      11.50000000      90.00000000      45.00000000      36.69619783       1.22674659
      11.60000000      90.00000000      45.00000000      36.69644565       1.22675487
      11.70000000      90.00000000      45.00000000      36.69669344       1.22676315
      11.80000000      90.00000000      45.00000000      36.69694121       1.22677144
      11.90000000      90.00000000      45.00000000      36.69718896       1.22677972
      12.00000000      90.00000000      45.00000000      36.69743669       1.22678800
      12.10000000      90.00000000      45.00000000      36.69768439       1.22679628
      12.20000000      90.00000000      45.00000000      36.69793208       1.22680456
      12.30000000      90.00000000      45.00000000      36.69817974       1.22681284
      12.40000000      90.00000000      45.00000000      36.69842738       1.22682112
      12.50000000      90.00000000      45.00000000      36.69867500       1.22682940
      12.60000000      90.00000000      45.00000000      36.69892260       1.22683767
      12.70000000      90.00000000      45.00000000      36.69917017       1.22684595
      12.80000000      90.00000000      45.00000000      36.69941772       1.22685423
      12.90000000      90.00000000      45.00000000      36.69966525       1.22686250
      13.00000000      90.00000000      45.00000000      36.69991276       1.22687078
      13.10000000      90.00000000      45.00000000      36.70016025       1.22687905
      13.20000000      90.00000000      45.00000000      36.70040772       1.22688732
      13.30000000      90.00000000      45.00000000      36.70065516       1.22689559
      13.40000000      90.00000000      45.00000000      36.70090258       1.22690386
      13.50000000      90.00000000      45.00000000      36.70114998       1.22691214
      13.60000000      90.00000000      45.00000000      36.70139736       1.22692041
      13.70000000      90.00000000      45.00000000      36.70164472       1.22692867
      13.80000000      90.00000000      45.00000000      36.70189205       1.22693694
      13.90000000      90.00000000      45.00000000      36.70213937       1.22694521
      14.00000000      90.00000000      45.00000000      36.70238666       1.22695348
      14.10000000      90.00000000      45.00000000      36.70263393       1.22696174
      14.20000000      90.00000000      45.00000000      36.70288118       1.22697001
      14.30000000      90.00000000      45.00000000      36.70312840       1.22697827
      14.40000000      90.00000000      45.00000000      36.70337561       1.22698654
      14.50000000      90.00000000      45.00000000      36.70362279       1.22699480
      14.60000000      90.00000000      45.00000000      36.70386995       1.22700306
      14.70000000      90.00000000      45.00000000      36.70411709       1.22701133
      14.80000000      90.00000000      45.00000000      36.70436421       1.22701959
      14.90000000      90.00000000      45.00000000      36.70461131       1.22702785
      15.00000000      90.00000000      45.00000000      36.70485839       1.22703611
      15.10000000      90.00000000      45.00000000      36.70510544       1.22704437
      15.20000000      90.00000000      45.00000000      36.70535247       1.22705262
      15.30000000      90.00000000      45.00000000      36.70559948       1.22706088
      15.40000000      90.00000000      45.00000000      36.70584647       1.22706914
      15.50000000      90.00000000      45.00000000      36.70609344       1.22707739
      15.60000000      90.00000000      45.00000000      36.70634038       1.22708565
      15.70000000      90.00000000      45.00000000      36.70658731       1.22709390
      15.80000000      90.00000000      45.00000000      36.70683421       1.22710216
      15.90000000      90.00000000      45.00000000      36.70708109       1.22711041
      16.00000000      90.00000000      45.00000000      36.70732795       1.22711866
      16.10000000      90.00000000      45.00000000      36.70757479       1.22712692
      16.20000000      90.00000000      45.00000000      36.70782160       1.22713517
      16.30000000      90.00000000      45.00000000      36.70806840       1.22714342
      16.40000000      90.00000000      45.00000000      36.70831517       1.22715167
      16.50000000      90.00000000      45.00000000      36.70856192       1.22715992
      16.60000000      90.00000000      45.00000000      36.70880866       1.22716816
      16.70000000      90.00000000      45.00000000      36.70905536       1.22717641
      16.80000000      90.00000000      45.00000000      36.70930205       1.22718466
      16.90000000      90.00000000      45.00000000      36.70954872       1.22719290
      17.00000000      90.00000000      45.00000000      36.70979536       1.22720115
      17.10000000      90.00000000      45.00000000      36.71004199       1.22720939
      17.20000000      90.00000000      45.00000000      36.71028859       1.22721764
      17.30000000      90.00000000      45.00000000      36.71053517       1.22722588
      17.40000000      90.00000000      45.00000000      36.71078173       1.22723412
      17.50000000      90.00000000      45.00000000      36.71102826       1.22724236
      17.60000000      90.00000000      45.00000000      36.71127478       1.22725061
      17.70000000      90.00000000      45.00000000      36.71152127       1.22725885
      17.80000000      90.00000000      45.00000000      36.71176775       1.22726709
      17.90000000      90.00000000      45.00000000      36.71201420       1.22727532
      18.00000000      90.00000000      45.00000000      36.71226063       1.22728356
      18.10000000      90.00000000      45.00000000      36.71250704       1.22729180
      18.20000000      90.00000000      45.00000000      36.71275343       1.22730004
      18.30000000      90.00000000      45.00000000      36.71299979       1.22730827
      18.40000000      90.00000000      45.00000000      36.71324614       1.22731651
      18.50000000      90.00000000      45.00000000      36.71349246       1.22732474
      18.60000000      90.00000000      45.00000000      36.71373877       1.22733298
      18.70000000      90.00000000      45.00000000      36.71398505       1.22734121
      18.80000000      90.00000000      45.00000000      36.71423131       1.22734944
      18.90000000      90.00000000      45.00000000      36.71447755       1.22735767
      19.00000000      90.00000000      45.00000000      36.71472376       1.22736590
      19.10000000      90.00000000      45.00000000      36.71496996       1.22737413
      19.20000000      90.00000000      45.00000000      36.71521614       1.22738236
      19.30000000      90.00000000      45.00000000      36.71546229       1.22739059
      19.40000000      90.00000000      45.00000000      36.71570842       1.22739882
      19.50000000      90.00000000      45.00000000      36.71595453       1.22740705
      19.60000000      90.00000000      45.00000000      36.71620062       1.22741528
      19.70000000      90.00000000      45.00000000      36.71644669       1.22742350
      19.80000000      90.00000000      45.00000000      36.71669274       1.22743173
      19.90000000      90.00000000      45.00000000      36.71693877       1.22743995
      20.00000000      90.00000000      45.00000000      36.71718477       1.22744818
      20.10000000      90.00000000      45.00000000      36.71743075       1.22745640
      20.20000000      90.00000000      45.00000000      36.71767672       1.22746462
      20.30000000      90.00000000      45.00000000      36.71792266       1.22747284
      20.40000000      90.00000000      45.00000000      36.71816858       1.22748106
      20.50000000      90.00000000      45.00000000      36.71841448       1.22748928
      20.60000000      90.00000000      45.00000000      36.71866036       1.22749750
      20.70000000      90.00000000      45.00000000      36.71890621       1.22750572
      20.80000000      90.00000000      45.00000000      36.71915205       1.22751394
      20.90000000      90.00000000      45.00000000      36.71939787       1.22752216
      21.00000000      90.00000000      45.00000000      36.71964366       1.22753038
      21.10000000      90.00000000      45.00000000      36.71988943       1.22753859
      21.20000000      90.00000000      45.00000000      36.72013518       1.22754681
      21.30000000      90.00000000      45.00000000      36.72038091       1.22755502
      21.40000000      90.00000000      45.00000000      36.72062662       1.22756324
      21.50000000      90.00000000      45.00000000      36.72087231       1.22757145
      21.60000000      90.00000000      45.00000000      36.72111798       1.22757966
      21.70000000      90.00000000      45.00000000      36.72136363       1.22758787
      21.80000000      90.00000000      45.00000000      36.72160925       1.22759608
      21.90000000      90.00000000      45.00000000      36.72185486       1.22760430
      22.00000000      90.00000000      45.00000000      36.72210044       1.22761250
      22.10000000      90.00000000      45.00000000      36.72234600       1.22762071
      22.20000000      90.00000000      45.00000000      36.72259154       1.22762892
      22.30000000      90.00000000      45.00000000      36.72283706       1.22763713
      22.40000000      90.00000000      45.00000000      36.72308256       1.22764534
      22.50000000      90.00000000      45.00000000      36.72332804       1.22765354
      22.60000000      90.00000000      45.00000000      36.72357350       1.22766175
      22.70000000      90.00000000      45.00000000      36.72381894       1.22766995
      22.80000000      90.00000000      45.00000000      36.72406435       1.22767816
      22.90000000      90.00000000      45.00000000      36.72430975       1.22768636
      23.00000000      90.00000000      45.00000000      36.72455512       1.22769456
