 # applied field (T), theta (degree), phi (degree), abs for RE 3-4
     0.00000     0.00000     0.00000     3.73893     0.00000     0.00000     3.73893
     0.10000     0.32461    48.93385     3.73891     0.32461    41.06615     3.73891
     0.20000     0.64924    48.93373     3.73886     0.64924    41.06627     3.73886
     0.30000     0.97389    48.93354     3.73878     0.97389    41.06646     3.73878
     0.40000     1.34458    48.93332     3.73865     1.34458    41.06668     3.73865
     0.50000     1.66932    48.93294     3.73850     1.66932    41.06706     3.73850
     0.60000     1.99412    48.93249     3.73832     1.99412    41.06751     3.73832
     0.70000     2.31900    48.93197     3.73810     2.31900    41.06803     3.73810
     0.80000     2.64396    48.93137     3.73786     2.64396    41.06863     3.73786
     0.90000     2.96902    48.93069     3.73758     2.96902    41.06931     3.73758
     1.00000     3.34026    48.92986     3.73722     3.34026    41.07014     3.73722
     1.10000     3.66556    48.92902     3.73688     3.66556    41.07098     3.73688
     1.20000     3.99100    48.92810     3.73650     3.99100    41.07190     3.73650
     1.30000     4.31659    48.92710     3.73609     4.31659    41.07290     3.73609
     1.40000     4.64233    48.92603     3.73565     4.64233    41.07397     3.73565
     1.50000     4.96824    48.92488     3.73517     4.96824    41.07512     3.73517
     1.60000     5.34055    48.92351     3.73459     5.34055    41.07649     3.73459
     1.70000     5.66686    48.92220     3.73405     5.66686    41.07780     3.73405
     1.80000     5.99338    48.92081     3.73348     5.99338    41.07919     3.73348
     1.90000     6.32012    48.91934     3.73287     6.32012    41.08066     3.73287
     2.00000     6.64709    48.91781     3.73223     6.64709    41.08219     3.73223
     2.10000     7.02069    48.91598     3.73147     7.02069    41.08402     3.73147
     2.20000     7.34819    48.91428     3.73076     7.34819    41.08572     3.73076
     2.30000     7.67596    48.91250     3.73003     7.67596    41.08750     3.73003
     2.40000     8.00401    48.91065     3.72926     8.00401    41.08935     3.72926
     2.50000     8.33235    48.90873     3.72846     8.33235    41.09127     3.72846
     2.60000     8.70758    48.90646     3.72751     8.70758    41.09354     3.72751
     2.70000     9.03658    48.90438     3.72664     9.03658    41.09562     3.72664
     2.80000     9.36591    48.90223     3.72575     9.36591    41.09777     3.72575
     2.90000     9.69558    48.90000     3.72482     9.69558    41.10000     3.72482
     3.00000    10.07239    48.89738     3.72372    10.07239    41.10262     3.72372
     3.10000    10.40283    48.89500     3.72273    10.40283    41.10500     3.72273
     3.20000    10.73364    48.89254     3.72170    10.73364    41.10746     3.72170
     3.30000    11.06483    48.89001     3.72065    11.06483    41.10999     3.72065
     3.40000    11.44345    48.88706     3.71940    11.44345    41.11294     3.71940
     3.50000    11.77551    48.88438     3.71829    11.77551    41.11562     3.71829
     3.60000    12.10800    48.88163     3.71714    12.10800    41.11837     3.71714
     3.70000    12.48814    48.87842     3.71578    12.48814    41.12158     3.71578
     3.80000    12.82157    48.87552     3.71457    12.82157    41.12448     3.71457
     3.90000    13.15547    48.87255     3.71333    13.15547    41.12745     3.71333
     4.00000    13.53726    48.86909     3.71187    13.53726    41.13091     3.71187
     4.10000    13.87217    48.86597     3.71056    13.87217    41.13403     3.71056
     4.20000    14.20759    48.86279     3.70922    14.20759    41.13721     3.70922
     4.30000    14.59115    48.85909     3.70766    14.59115    41.14091     3.70766
     4.40000    14.92766    48.85576     3.70626    14.92766    41.14424     3.70626
     4.50000    15.31252    48.85190     3.70462    15.31252    41.14810     3.70462
     4.60000    15.65018    48.84843     3.70316    15.65018    41.15157     3.70316
     4.70000    15.98840    48.84490     3.70167    15.98840    41.15510     3.70167
     4.80000    16.37525    48.84080     3.69993    16.37525    41.15920     3.69993
     4.90000    16.71469    48.83714     3.69839    16.71469    41.16286     3.69839
     5.00000    17.10297    48.83288     3.69658    17.10297    41.16712     3.69658
     5.10000    17.44369    48.82908     3.69497    17.44369    41.17092     3.69497
     5.20000    17.83346    48.82467     3.69309    17.83346    41.17533     3.69309
     5.30000    18.17550    48.82074     3.69142    18.17550    41.17926     3.69142
     5.40000    18.56682    48.81618     3.68948    18.56682    41.18382     3.68948
     5.50000    18.91024    48.81212     3.68775    18.91024    41.18788     3.68775
     5.60000    19.30316    48.80742     3.68574    19.30316    41.19258     3.68574
     5.70000    19.69696    48.80264     3.68370    19.69696    41.19736     3.68370
     5.80000    20.04260    48.79839     3.68188    20.04260    41.20161     3.68188
     5.90000    20.43808    48.79347     3.67977    20.43808    41.20653     3.67977
     6.00000    20.78522    48.78909     3.67790    20.78522    41.21091     3.67790
     6.10000    21.18246    48.78404     3.67573    21.18246    41.21596     3.67573
     6.20000    21.58064    48.77892     3.67352    21.58064    41.22108     3.67352
     6.30000    21.97980    48.77372     3.67128    21.97980    41.22628     3.67128
     6.40000    22.33020    48.76910     3.66930    22.33020    41.23090     3.66930
     6.50000    22.73122    48.76378     3.66700    22.73122    41.23622     3.66700
     6.60000    23.13325    48.75839     3.66467    23.13325    41.24161     3.66467
     6.70000    23.53631    48.75293     3.66230    23.53631    41.24707     3.66230
     6.80000    23.89018    48.74809     3.66021    23.89018    41.25191     3.66021
     6.90000    24.29521    48.74251     3.65779    24.29521    41.25749     3.65779
     7.00000    24.70131    48.73687     3.65534    24.70131    41.26313     3.65534
     7.10000    25.10851    48.73117     3.65285    25.10851    41.26883     3.65285
     7.20000    25.51680    48.72541     3.65034    25.51680    41.27459     3.65034
     7.30000    25.92622    48.71959     3.64780    25.92622    41.28041     3.64780
     7.40000    26.33676    48.71372     3.64523    26.33676    41.28628     3.64523
     7.50000    26.74845    48.70779     3.64263    26.74845    41.29221     3.64263
     7.60000    27.16131    48.70180     3.64000    27.16131    41.29820     3.64000
     7.70000    27.57533    48.69576     3.63735    27.57533    41.30424     3.63735
     7.80000    27.99054    48.68967     3.63467    27.99054    41.31033     3.63467
     7.90000    28.40696    48.68353     3.63196    28.40696    41.31647     3.63196
     8.00000    28.82459    48.67734     3.62923    28.82459    41.32266     3.62923
     8.10000    29.24345    48.67110     3.62647    29.24345    41.32890     3.62647
     8.20000    29.71584    48.66404     3.62333    29.71584    41.33596     3.62333
     8.30000    30.13736    48.65770     3.62052    30.13736    41.34230     3.62052
     8.40000    30.56014    48.65132     3.61768    30.56014    41.34868     3.61768
     8.50000    30.98421    48.64490     3.61483    30.98421    41.35510     3.61483
     8.60000    31.46253    48.63765     3.61158    31.46253    41.36235     3.61158
     8.70000    31.88937    48.63114     3.60867    31.88937    41.36886     3.60867
     8.80000    32.37083    48.62380     3.60537    32.37083    41.37620     3.60537
     8.90000    32.80050    48.61722     3.60242    32.80050    41.38278     3.60242
     9.00000    33.28517    48.60979     3.59907    33.28517    41.39021     3.59907
     9.10000    33.71771    48.60314     3.59608    33.71771    41.39686     3.59608
     9.20000    34.20565    48.59563     3.59268    34.20565    41.40437     3.59268
     9.30000    34.69535    48.58810     3.58926    34.69535    41.41190     3.58926
     9.40000    35.13239    48.58135     3.58621    35.13239    41.41865     3.58621
     9.50000    35.62544    48.57375     3.58275    35.62544    41.42625     3.58275
     9.60000    36.12029    48.56612     3.57927    36.12029    41.43388     3.57927
     9.70000    36.61695    48.55847     3.57577    36.61695    41.44153     3.57577
     9.80000    37.11544    48.55078     3.57225    37.11544    41.44922     3.57225
     9.90000    37.61577    48.54308     3.56871    37.61577    41.45692     3.56871
    10.00000    38.11795    48.53536     3.56516    38.11795    41.46464     3.56516
    10.10000    38.62200    48.52762     3.56159    38.62200    41.47238     3.56159
    10.20000    39.12793    48.51986     3.55801    39.12793    41.48014     3.55801
    10.30000    39.63574    48.51210     3.55441    39.63574    41.48790     3.55441
    10.40000    40.20196    48.50347     3.55040    40.20196    41.49653     3.55040
    10.50000    40.71380    48.49568     3.54678    40.71380    41.50432     3.54678
    10.60000    41.22757    48.48789     3.54315    41.22757    41.51211     3.54315
    10.70000    41.80044    48.47925     3.53910    41.80044    41.52075     3.53910
    10.80000    42.37571    48.47061     3.53504    42.37571    41.52939     3.53504
    10.90000    42.89575    48.46282     3.53138    42.89575    41.53718     3.53138
    11.00000    43.47562    48.45419     3.52731    43.47562    41.54581     3.52731
    11.10000    44.05792    48.44557     3.52323    44.05792    41.55443     3.52323
    11.20000    44.64267    48.43697     3.51915    44.64267    41.56303     3.51915
    11.30000    45.22987    48.42838     3.51507    45.22987    41.57162     3.51507
    11.40000    45.81953    48.41981     3.51099    45.81953    41.58019     3.51099
    11.50000    46.41166    48.41127     3.50691    46.41166    41.58873     3.50691
    11.60000    47.06564    48.40193     3.50242    47.06564    41.59807     3.50242
    11.70000    47.66296    48.39345     3.49836    47.66296    41.60655     3.49836
    11.80000    48.32267    48.38419     3.49388    48.32267    41.61581     3.49388
    11.90000    48.98538    48.37497     3.48942    48.98538    41.62503     3.48942
    12.00000    49.65111    48.36581     3.48498    49.65111    41.63419     3.48498
    12.10000    50.31984    48.35670     3.48055    50.31984    41.64330     3.48055
    12.20000    50.99157    48.34766     3.47614    50.99157    41.65234     3.47614
    12.30000    51.72761    48.33789     3.47135    51.72761    41.66211     3.47135
    12.40000    52.40561    48.32899     3.46699    52.40561    41.67101     3.46699
    12.50000    53.14848    48.31939     3.46226    53.14848    41.68061     3.46226
    12.60000    53.89489    48.30989     3.45756    53.89489    41.69011     3.45756
    12.70000    54.64483    48.30049     3.45290    54.64483    41.69951     3.45290
    12.80000    55.46107    48.29045     3.44790    55.46107    41.70955     3.44790
    12.90000    56.21830    48.28129     3.44334    56.21830    41.71871     3.44334
    13.00000    57.04240    48.27152     3.43844    57.04240    41.72848     3.43844
    13.10000    57.93425    48.26117     3.43324    57.93425    41.73883     3.43324
    13.20000    58.76668    48.25172     3.42848    58.76668    41.74828     3.42848
    13.30000    59.66742    48.24175     3.42343    59.66742    41.75825     3.42343
    13.40000    60.57268    48.23197     3.41848    60.57268    41.76803     3.41848
    13.50000    61.54744    48.22174     3.41326    61.54744    41.77826     3.41326
    13.60000    62.52723    48.21177     3.40817    62.52723    41.78823     3.40817
    13.70000    63.57768    48.20143     3.40286    63.57768    41.79857     3.40286
    13.80000    64.63363    48.19141     3.39770    64.63363    41.80859     3.39770
    13.90000    65.76135    48.18112     3.39238    65.76135    41.81888     3.39238
    14.00000    66.96174    48.17065     3.38695    66.96174    41.82935     3.38695
    14.10000    68.23565    48.16009     3.38145    68.23565    41.83991     3.38145
    14.20000    69.51638    48.15004     3.37620    69.51638    41.84996     3.37620
    14.30000    70.93938    48.13957     3.37071    70.93938    41.86043     3.37071
    14.40000    72.50643    48.12887     3.36507    72.50643    41.87113     3.36507
    14.50000    74.21921    48.11821     3.35943    74.21921    41.88179     3.35943
    14.60000    76.14824    48.10748     3.35373    76.14824    41.89252     3.35373
    14.70000    78.36520    48.09685     3.34807    78.36520    41.90315     3.34807
    14.80000    81.15205    48.08609     3.34231    81.15205    41.91391     3.34231
    14.90000    85.42688    48.07524     3.33648    85.42688    41.92476     3.33648
    15.00000    90.00000    48.07119     3.33442    90.00000    41.92881     3.33442
    15.10000    90.00000    48.07105     3.33454    90.00000    41.92895     3.33454
    15.20000    90.00000    48.07090     3.33465    90.00000    41.92910     3.33465
    15.30000    90.00000    48.07075     3.33477    90.00000    41.92925     3.33477
    15.40000    90.00000    48.07060     3.33488    90.00000    41.92940     3.33488
    15.50000    90.00000    48.07046     3.33500    90.00000    41.92954     3.33500
    15.60000    90.00000    48.07031     3.33512    90.00000    41.92969     3.33512
    15.70000    90.00000    48.07016     3.33523    90.00000    41.92984     3.33523
    15.80000    90.00000    48.07002     3.33535    90.00000    41.92998     3.33535
    15.90000    90.00000    48.06987     3.33546    90.00000    41.93013     3.33546
    16.00000    90.00000    48.06972     3.33558    90.00000    41.93028     3.33558
    16.10000    90.00000    48.06958     3.33569    90.00000    41.93042     3.33569
    16.20000    90.00000    48.06943     3.33581    90.00000    41.93057     3.33581
    16.30000    90.00000    48.06928     3.33592    90.00000    41.93072     3.33592
    16.40000    90.00000    48.06914     3.33604    90.00000    41.93086     3.33604
    16.50000    90.00000    48.06899     3.33615    90.00000    41.93101     3.33615
    16.60000    90.00000    48.06884     3.33627    90.00000    41.93116     3.33627
    16.70000    90.00000    48.06870     3.33638    90.00000    41.93130     3.33638
    16.80000    90.00000    48.06855     3.33650    90.00000    41.93145     3.33650
    16.90000    90.00000    48.06840     3.33661    90.00000    41.93160     3.33661
    17.00000    90.00000    48.06826     3.33673    90.00000    41.93174     3.33673
    17.10000    90.00000    48.06811     3.33684    90.00000    41.93189     3.33684
    17.20000    90.00000    48.06796     3.33696    90.00000    41.93204     3.33696
    17.30000    90.00000    48.06782     3.33707    90.00000    41.93218     3.33707
    17.40000    90.00000    48.06767     3.33719    90.00000    41.93233     3.33719
    17.50000    90.00000    48.06752     3.33730    90.00000    41.93248     3.33730
    17.60000    90.00000    48.06738     3.33742    90.00000    41.93262     3.33742
    17.70000    90.00000    48.06723     3.33753    90.00000    41.93277     3.33753
    17.80000    90.00000    48.06708     3.33765    90.00000    41.93292     3.33765
    17.90000    90.00000    48.06694     3.33776    90.00000    41.93306     3.33776
    18.00000    90.00000    48.06679     3.33788    90.00000    41.93321     3.33788
    18.10000    90.00000    48.06665     3.33799    90.00000    41.93335     3.33799
    18.20000    90.00000    48.06650     3.33811    90.00000    41.93350     3.33811
    18.30000    90.00000    48.06635     3.33822    90.00000    41.93365     3.33822
    18.40000    90.00000    48.06621     3.33833    90.00000    41.93379     3.33833
    18.50000    90.00000    48.06606     3.33845    90.00000    41.93394     3.33845
    18.60000    90.00000    48.06591     3.33856    90.00000    41.93409     3.33856
    18.70000    90.00000    48.06577     3.33868    90.00000    41.93423     3.33868
    18.80000    90.00000    48.06562     3.33879    90.00000    41.93438     3.33879
    18.90000    90.00000    48.06548     3.33891    90.00000    41.93452     3.33891
    19.00000    90.00000    48.06533     3.33902    90.00000    41.93467     3.33902
    19.10000    90.00000    48.06518     3.33914    90.00000    41.93482     3.33914
    19.20000    90.00000    48.06504     3.33925    90.00000    41.93496     3.33925
    19.30000    90.00000    48.06489     3.33936    90.00000    41.93511     3.33936
    19.40000    90.00000    48.06475     3.33948    90.00000    41.93525     3.33948
    19.50000    90.00000    48.06460     3.33959    90.00000    41.93540     3.33959
    19.60000    90.00000    48.06446     3.33971    90.00000    41.93554     3.33971
    19.70000    90.00000    48.06431     3.33982    90.00000    41.93569     3.33982
    19.80000    90.00000    48.06416     3.33994    90.00000    41.93584     3.33994
    19.90000    90.00000    48.06402     3.34005    90.00000    41.93598     3.34005
    20.00000    90.00000    48.06387     3.34016    90.00000    41.93613     3.34016
    20.10000    90.00000    48.06373     3.34028    90.00000    41.93627     3.34028
    20.20000    90.00000    48.06358     3.34039    90.00000    41.93642     3.34039
    20.30000    90.00000    48.06344     3.34051    90.00000    41.93656     3.34051
    20.40000    90.00000    48.06329     3.34062    90.00000    41.93671     3.34062
    20.50000    90.00000    48.06314     3.34073    90.00000    41.93686     3.34073
    20.60000    90.00000    48.06300     3.34085    90.00000    41.93700     3.34085
    20.70000    90.00000    48.06285     3.34096    90.00000    41.93715     3.34096
    20.80000    90.00000    48.06271     3.34108    90.00000    41.93729     3.34108
    20.90000    90.00000    48.06256     3.34119    90.00000    41.93744     3.34119
    21.00000    90.00000    48.06242     3.34130    90.00000    41.93758     3.34130
    21.10000    90.00000    48.06227     3.34142    90.00000    41.93773     3.34142
    21.20000    90.00000    48.06213     3.34153    90.00000    41.93787     3.34153
    21.30000    90.00000    48.06198     3.34164    90.00000    41.93802     3.34164
    21.40000    90.00000    48.06184     3.34176    90.00000    41.93816     3.34176
    21.50000    90.00000    48.06169     3.34187    90.00000    41.93831     3.34187
    21.60000    90.00000    48.06155     3.34198    90.00000    41.93845     3.34198
    21.70000    90.00000    48.06140     3.34210    90.00000    41.93860     3.34210
    21.80000    90.00000    48.06126     3.34221    90.00000    41.93874     3.34221
    21.90000    90.00000    48.06111     3.34233    90.00000    41.93889     3.34233
    22.00000    90.00000    48.06096     3.34244    90.00000    41.93904     3.34244
    22.10000    90.00000    48.06082     3.34255    90.00000    41.93918     3.34255
    22.20000    90.00000    48.06067     3.34267    90.00000    41.93933     3.34267
    22.30000    90.00000    48.06053     3.34278    90.00000    41.93947     3.34278
    22.40000    90.00000    48.06038     3.34289    90.00000    41.93962     3.34289
    22.50000    90.00000    48.06024     3.34301    90.00000    41.93976     3.34301
    22.60000    90.00000    48.06009     3.34312    90.00000    41.93991     3.34312
    22.70000    90.00000    48.05995     3.34323    90.00000    41.94005     3.34323
    22.80000    90.00000    48.05981     3.34335    90.00000    41.94019     3.34335
    22.90000    90.00000    48.05966     3.34346    90.00000    41.94034     3.34346
    23.00000    90.00000    48.05952     3.34357    90.00000    41.94048     3.34357
    23.10000    90.00000    48.05937     3.34369    90.00000    41.94063     3.34369
    23.20000    90.00000    48.05923     3.34380    90.00000    41.94077     3.34380
    23.30000    90.00000    48.05908     3.34391    90.00000    41.94092     3.34391
