 # applied field (T), theta (degree), phi (degree), abs for RE 1-2
     0.00000     0.40476   315.00000     3.94481     0.40476   225.00000     3.94481
     0.10000     1.00974   342.40923     3.94486     0.47295   325.55208     3.94523
     0.20000     1.67063   348.81039     3.94482     1.09515   346.86283     3.94556
     0.30000     2.34062   351.56561     3.94471     1.75844   352.47323     3.94582
     0.40000     3.01381   353.09130     3.94452     2.42975   354.99904     3.94598
     0.50000     3.68861   354.05839     3.94425     3.10422   356.42966     3.94607
     0.60000     4.36447   354.72534     3.94391     3.78049   357.34916     3.94607
     0.70000     5.04119   355.21261     3.94349     4.45807   357.98951     3.94598
     0.80000     5.71866   355.58383     3.94300     5.13677   358.46088     3.94580
     0.90000     6.39688   355.87577     3.94243     5.81651   358.82228     3.94554
     1.00000     7.07587   356.11116     3.94180     6.49728   359.10813     3.94518
     1.10000     7.75566   356.30479     3.94109     7.17910   359.33987     3.94474
     1.20000     8.48843   356.47801     3.94025     7.91431   359.54488     3.94415
     1.30000     9.17003   356.61363     3.93940     8.59840   359.70403     3.94352
     1.40000     9.90487   356.73828     3.93841     9.33617   359.84949     3.94273
     1.50000    10.58851   356.83814     3.93742    10.02275   359.96559     3.94190
     1.60000    11.32569   356.93172     3.93629    10.76330     0.07423     3.94090
     1.70000    12.06417   357.01345     3.93509    11.50538     0.16911     3.93980
     1.80000    12.80402   357.08534     3.93382    12.24907     0.25273     3.93859
     1.90000    13.54532   357.14900     3.93248    12.99442     0.32701     3.93728
     2.00000    14.34100   357.20947     3.93098    13.79467     0.39795     3.93575
     2.10000    15.08549   357.25983     3.92951    14.54365     0.45740     3.93422
     2.20000    15.88472   357.30816     3.92787    15.34793     0.51492     3.93246
     2.30000    16.68589   357.35151     3.92617    16.15438     0.56703     3.93058
     2.40000    17.48907   357.39056     3.92442    16.96308     0.61449     3.92859
     2.50000    18.29430   357.42586     3.92260    17.77409     0.65795     3.92648
     2.60000    19.15533   357.45991     3.92061    18.64155     0.70048     3.92411
     2.70000    20.01883   357.49071     3.91856    19.51176     0.73960     3.92162
     2.80000    20.88485   357.51867     3.91646    20.38480     0.77576     3.91901
     2.90000    21.80761   357.54563     3.91418    21.31536     0.81134     3.91610
     3.00000    22.73333   357.57011     3.91185    22.24923     0.84437     3.91306
     3.10000    23.66203   357.59241     3.90948    23.18648     0.87518     3.90991
     3.20000    24.64847   357.61391     3.90694    24.18243     0.90568     3.90644
     3.30000    25.63833   357.63351     3.90436    25.18228     0.93426     3.90285
     3.40000    26.68673   357.65236     3.90161    26.24179     0.96262     3.89893
     3.50000    27.79430   357.67042     3.89869    27.36173     0.99071     3.89467
     3.60000    28.90611   357.68688     3.89576    28.48667     1.01723     3.89030
     3.70000    30.07791   357.70265     3.89268    29.67311     1.04360     3.88560
     3.80000    31.31031   357.71771     3.88945    30.92188     1.06982     3.88056
     3.90000    32.60394   357.73207     3.88610    32.23383     1.09592     3.87519
     4.00000    34.01588   357.74630     3.88248    33.66718     1.12298     3.86927
     4.10000    35.49072   357.75980     3.87877    35.16607     1.14990     3.86306
     4.20000    37.02900   357.77263     3.87500    36.73138     1.17674     3.85659
     4.30000    38.74571   357.78572     3.87090    38.48069     1.20549     3.84942
     4.40000    40.58530   357.79858     3.86668    40.35815     1.23514     3.84187
     4.50000    42.66442   357.81199     3.86213    42.48380     1.26752     3.83360
     4.60000    45.04367   357.82625     3.85724    44.92106     1.30345     3.82460
     4.70000    47.84282   357.84207     3.85192    47.79454     1.34461     3.81482
     4.80000    51.35935   357.86121     3.84594    51.41235     1.39513     3.80409
     4.90000    56.24904   357.88781     3.83888    56.45247     1.46386     3.79259
     5.00000    67.27042   357.95442     3.82745    67.80572     1.61227     3.78276
     5.10000    89.57200   358.14233     3.81381    90.42800     1.85767     3.81381
     5.20000    89.57202   358.14243     3.81392    90.42798     1.85757     3.81392
     5.30000    89.57204   358.14253     3.81402    90.42796     1.85747     3.81402
     5.40000    89.57206   358.14263     3.81412    90.42794     1.85737     3.81412
     5.50000    89.57209   358.14272     3.81423    90.42791     1.85728     3.81423
     5.60000    89.57211   358.14282     3.81433    90.42789     1.85718     3.81433
     5.70000    89.57213   358.14292     3.81444    90.42787     1.85708     3.81444
     5.80000    89.57215   358.14302     3.81454    90.42785     1.85698     3.81454
     5.90000    89.57217   358.14312     3.81464    90.42783     1.85688     3.81464
     6.00000    89.57220   358.14322     3.81475    90.42780     1.85678     3.81475
     6.10000    89.57222   358.14332     3.81485    90.42778     1.85668     3.81485
     6.20000    89.57224   358.14342     3.81495    90.42776     1.85658     3.81495
     6.30000    89.57226   358.14351     3.81506    90.42774     1.85649     3.81506
     6.40000    89.57228   358.14361     3.81516    90.42772     1.85639     3.81516
     6.50000    89.57230   358.14371     3.81526    90.42770     1.85629     3.81526
     6.60000    89.57233   358.14381     3.81537    90.42767     1.85619     3.81537
     6.70000    89.57235   358.14391     3.81547    90.42765     1.85609     3.81547
     6.80000    89.57237   358.14401     3.81557    90.42763     1.85599     3.81557
     6.90000    89.57239   358.14411     3.81567    90.42761     1.85589     3.81567
     7.00000    89.57241   358.14421     3.81578    90.42759     1.85579     3.81578
     7.10000    89.57244   358.14430     3.81588    90.42756     1.85570     3.81588
     7.20000    89.57246   358.14440     3.81598    90.42754     1.85560     3.81598
     7.30000    89.57248   358.14450     3.81609    90.42752     1.85550     3.81609
     7.40000    89.57250   358.14460     3.81619    90.42750     1.85540     3.81619
     7.50000    89.57252   358.14470     3.81629    90.42748     1.85530     3.81629
     7.60000    89.57254   358.14480     3.81640    90.42746     1.85520     3.81640
     7.70000    89.57257   358.14490     3.81650    90.42743     1.85510     3.81650
     7.80000    89.57259   358.14499     3.81660    90.42741     1.85501     3.81660
     7.90000    89.57261   358.14509     3.81670    90.42739     1.85491     3.81670
     8.00000    89.57263   358.14519     3.81681    90.42737     1.85481     3.81681
     8.10000    89.57265   358.14529     3.81691    90.42735     1.85471     3.81691
     8.20000    89.57268   358.14539     3.81701    90.42732     1.85461     3.81701
     8.30000    89.57270   358.14549     3.81712    90.42730     1.85451     3.81712
     8.40000    89.57272   358.14559     3.81722    90.42728     1.85441     3.81722
     8.50000    89.57274   358.14568     3.81732    90.42726     1.85432     3.81732
     8.60000    89.57276   358.14578     3.81742    90.42724     1.85422     3.81742
     8.70000    89.57278   358.14588     3.81753    90.42722     1.85412     3.81753
     8.80000    89.57281   358.14598     3.81763    90.42719     1.85402     3.81763
     8.90000    89.57283   358.14608     3.81773    90.42717     1.85392     3.81773
     9.00000    89.57285   358.14618     3.81783    90.42715     1.85382     3.81783
     9.10000    89.57287   358.14627     3.81794    90.42713     1.85373     3.81794
     9.20000    89.57289   358.14637     3.81804    90.42711     1.85363     3.81804
     9.30000    89.57291   358.14647     3.81814    90.42709     1.85353     3.81814
     9.40000    89.57294   358.14657     3.81824    90.42706     1.85343     3.81824
     9.50000    89.57296   358.14667     3.81834    90.42704     1.85333     3.81834
     9.60000    89.57298   358.14677     3.81845    90.42702     1.85323     3.81845
     9.70000    89.57300   358.14686     3.81855    90.42700     1.85314     3.81855
     9.80000    89.57302   358.14696     3.81865    90.42698     1.85304     3.81865
     9.90000    89.57304   358.14706     3.81875    90.42696     1.85294     3.81875
    10.00000    89.57307   358.14716     3.81885    90.42693     1.85284     3.81885
    10.10000    89.57309   358.14726     3.81896    90.42691     1.85274     3.81896
    10.20000    89.57311   358.14735     3.81906    90.42689     1.85265     3.81906
    10.30000    89.57313   358.14745     3.81916    90.42687     1.85255     3.81916
    10.40000    89.57315   358.14755     3.81926    90.42685     1.85245     3.81926
    10.50000    89.57317   358.14765     3.81936    90.42683     1.85235     3.81936
    10.60000    89.57320   358.14775     3.81947    90.42680     1.85225     3.81947
    10.70000    89.57322   358.14784     3.81957    90.42678     1.85216     3.81957
    10.80000    89.57324   358.14794     3.81967    90.42676     1.85206     3.81967
    10.90000    89.57326   358.14804     3.81977    90.42674     1.85196     3.81977
    11.00000    89.57328   358.14814     3.81987    90.42672     1.85186     3.81987
    11.10000    89.57330   358.14824     3.81998    90.42670     1.85176     3.81998
    11.20000    89.57333   358.14833     3.82008    90.42667     1.85167     3.82008
    11.30000    89.57335   358.14843     3.82018    90.42665     1.85157     3.82018
    11.40000    89.57337   358.14853     3.82028    90.42663     1.85147     3.82028
    11.50000    89.57339   358.14863     3.82038    90.42661     1.85137     3.82038
    11.60000    89.57341   358.14873     3.82048    90.42659     1.85127     3.82048
    11.70000    89.57343   358.14882     3.82059    90.42657     1.85118     3.82059
    11.80000    89.57346   358.14892     3.82069    90.42654     1.85108     3.82069
    11.90000    89.57348   358.14902     3.82079    90.42652     1.85098     3.82079
    12.00000    89.57350   358.14912     3.82089    90.42650     1.85088     3.82089
    12.10000    89.57352   358.14922     3.82099    90.42648     1.85078     3.82099
    12.20000    89.57354   358.14931     3.82109    90.42646     1.85069     3.82109
    12.30000    89.57356   358.14941     3.82119    90.42644     1.85059     3.82119
    12.40000    89.57359   358.14951     3.82129    90.42641     1.85049     3.82129
    12.50000    89.57361   358.14961     3.82140    90.42639     1.85039     3.82140
    12.60000    89.57363   358.14970     3.82150    90.42637     1.85030     3.82150
    12.70000    89.57365   358.14980     3.82160    90.42635     1.85020     3.82160
    12.80000    89.57367   358.14990     3.82170    90.42633     1.85010     3.82170
    12.90000    89.57369   358.15000     3.82180    90.42631     1.85000     3.82180
    13.00000    89.57372   358.15009     3.82190    90.42628     1.84991     3.82190
    13.10000    89.57374   358.15019     3.82200    90.42626     1.84981     3.82200
    13.20000    89.57376   358.15029     3.82210    90.42624     1.84971     3.82210
    13.30000    89.57378   358.15039     3.82220    90.42622     1.84961     3.82220
    13.40000    89.57380   358.15048     3.82231    90.42620     1.84952     3.82231
    13.50000    89.57382   358.15058     3.82241    90.42618     1.84942     3.82241
    13.60000    89.57385   358.15068     3.82251    90.42615     1.84932     3.82251
    13.70000    89.57387   358.15078     3.82261    90.42613     1.84922     3.82261
    13.80000    89.57389   358.15087     3.82271    90.42611     1.84913     3.82271
    13.90000    89.57391   358.15097     3.82281    90.42609     1.84903     3.82281
    14.00000    89.57393   358.15107     3.82291    90.42607     1.84893     3.82291
    14.10000    89.57395   358.15117     3.82301    90.42605     1.84883     3.82301
    14.20000    89.57397   358.15126     3.82311    90.42603     1.84874     3.82311
    14.30000    89.57400   358.15136     3.82321    90.42600     1.84864     3.82321
    14.40000    89.57402   358.15146     3.82331    90.42598     1.84854     3.82331
    14.50000    89.57404   358.15156     3.82341    90.42596     1.84844     3.82341
    14.60000    89.57406   358.15165     3.82351    90.42594     1.84835     3.82351
    14.70000    89.57408   358.15175     3.82362    90.42592     1.84825     3.82362
    14.80000    89.57410   358.15185     3.82372    90.42590     1.84815     3.82372
    14.90000    89.57413   358.15195     3.82382    90.42587     1.84805     3.82382
    15.00000    89.57415   358.15204     3.82392    90.42585     1.84796     3.82392
    15.10000    89.57417   358.15214     3.82402    90.42583     1.84786     3.82402
    15.20000    89.57419   358.15224     3.82412    90.42581     1.84776     3.82412
    15.30000    89.57421   358.15233     3.82422    90.42579     1.84767     3.82422
    15.40000    89.57423   358.15243     3.82432    90.42577     1.84757     3.82432
    15.50000    89.57425   358.15253     3.82442    90.42575     1.84747     3.82442
    15.60000    89.57428   358.15263     3.82452    90.42572     1.84737     3.82452
    15.70000    89.57430   358.15272     3.82462    90.42570     1.84728     3.82462
    15.80000    89.57432   358.15282     3.82472    90.42568     1.84718     3.82472
    15.90000    89.57434   358.15292     3.82482    90.42566     1.84708     3.82482
    16.00000    89.57436   358.15301     3.82492    90.42564     1.84699     3.82492
    16.10000    89.57438   358.15311     3.82502    90.42562     1.84689     3.82502
    16.20000    89.57440   358.15321     3.82512    90.42560     1.84679     3.82512
    16.30000    89.57443   358.15331     3.82522    90.42557     1.84669     3.82522
    16.40000    89.57445   358.15340     3.82532    90.42555     1.84660     3.82532
    16.50000    89.57447   358.15350     3.82542    90.42553     1.84650     3.82542
    16.60000    89.57449   358.15360     3.82552    90.42551     1.84640     3.82552
    16.70000    89.57451   358.15369     3.82562    90.42549     1.84631     3.82562
    16.80000    89.57453   358.15379     3.82572    90.42547     1.84621     3.82572
    16.90000    89.57455   358.15389     3.82582    90.42545     1.84611     3.82582
    17.00000    89.57458   358.15398     3.82592    90.42542     1.84602     3.82592
    17.10000    89.57460   358.15408     3.82602    90.42540     1.84592     3.82602
    17.20000    89.57462   358.15418     3.82612    90.42538     1.84582     3.82612
    17.30000    89.57464   358.15427     3.82622    90.42536     1.84573     3.82622
    17.40000    89.57466   358.15437     3.82632    90.42534     1.84563     3.82632
    17.50000    89.57468   358.15447     3.82642    90.42532     1.84553     3.82642
    17.60000    89.57470   358.15456     3.82652    90.42530     1.84544     3.82652
    17.70000    89.57473   358.15466     3.82662    90.42527     1.84534     3.82662
    17.80000    89.57475   358.15476     3.82672    90.42525     1.84524     3.82672
    17.90000    89.57477   358.15485     3.82681    90.42523     1.84515     3.82681
    18.00000    89.57479   358.15495     3.82691    90.42521     1.84505     3.82691
    18.10000    89.57481   358.15505     3.82701    90.42519     1.84495     3.82701
    18.20000    89.57483   358.15514     3.82711    90.42517     1.84486     3.82711
    18.30000    89.57485   358.15524     3.82721    90.42515     1.84476     3.82721
    18.40000    89.57488   358.15534     3.82731    90.42512     1.84466     3.82731
    18.50000    89.57490   358.15543     3.82741    90.42510     1.84457     3.82741
    18.60000    89.57492   358.15553     3.82751    90.42508     1.84447     3.82751
    18.70000    89.57494   358.15563     3.82761    90.42506     1.84437     3.82761
    18.80000    89.57496   358.15572     3.82771    90.42504     1.84428     3.82771
    18.90000    89.57498   358.15582     3.82781    90.42502     1.84418     3.82781
    19.00000    89.57500   358.15592     3.82791    90.42500     1.84408     3.82791
    19.10000    89.57503   358.15601     3.82801    90.42497     1.84399     3.82801
    19.20000    89.57505   358.15611     3.82810    90.42495     1.84389     3.82810
    19.30000    89.57507   358.15621     3.82820    90.42493     1.84379     3.82820
    19.40000    89.57509   358.15630     3.82830    90.42491     1.84370     3.82830
    19.50000    89.57511   358.15640     3.82840    90.42489     1.84360     3.82840
    19.60000    89.57513   358.15650     3.82850    90.42487     1.84350     3.82850
    19.70000    89.57515   358.15659     3.82860    90.42485     1.84341     3.82860
    19.80000    89.57518   358.15669     3.82870    90.42482     1.84331     3.82870
    19.90000    89.57520   358.15679     3.82880    90.42480     1.84321     3.82880
    20.00000    89.57522   358.15688     3.82890    90.42478     1.84312     3.82890
    20.10000    89.57524   358.15698     3.82899    90.42476     1.84302     3.82899
    20.20000    89.57526   358.15707     3.82909    90.42474     1.84293     3.82909
    20.30000    89.57528   358.15717     3.82919    90.42472     1.84283     3.82919
    20.40000    89.57530   358.15727     3.82929    90.42470     1.84273     3.82929
    20.50000    89.57532   358.15736     3.82939    90.42468     1.84264     3.82939
    20.60000    89.57535   358.15746     3.82949    90.42465     1.84254     3.82949
    20.70000    89.57537   358.15756     3.82959    90.42463     1.84244     3.82959
    20.80000    89.57539   358.15765     3.82968    90.42461     1.84235     3.82968
    20.90000    89.57541   358.15775     3.82978    90.42459     1.84225     3.82978
    21.00000    89.57543   358.15784     3.82988    90.42457     1.84216     3.82988
    21.10000    89.57545   358.15794     3.82998    90.42455     1.84206     3.82998
    21.20000    89.57547   358.15804     3.83008    90.42453     1.84196     3.83008
    21.30000    89.57549   358.15813     3.83018    90.42451     1.84187     3.83018
    21.40000    89.57552   358.15823     3.83028    90.42448     1.84177     3.83028
    21.50000    89.57554   358.15833     3.83037    90.42446     1.84167     3.83037
    21.60000    89.57556   358.15842     3.83047    90.42444     1.84158     3.83047
    21.70000    89.57558   358.15852     3.83057    90.42442     1.84148     3.83057
    21.80000    89.57560   358.15861     3.83067    90.42440     1.84139     3.83067
    21.90000    89.57562   358.15871     3.83077    90.42438     1.84129     3.83077
    22.00000    89.57564   358.15881     3.83086    90.42436     1.84119     3.83086
    22.10000    89.57567   358.15890     3.83096    90.42433     1.84110     3.83096
    22.20000    89.57569   358.15900     3.83106    90.42431     1.84100     3.83106
    22.30000    89.57571   358.15909     3.83116    90.42429     1.84091     3.83116
    22.40000    89.57573   358.15919     3.83126    90.42427     1.84081     3.83126
    22.50000    89.57575   358.15929     3.83135    90.42425     1.84071     3.83135
    22.60000    89.57577   358.15938     3.83145    90.42423     1.84062     3.83145
    22.70000    89.57579   358.15948     3.83155    90.42421     1.84052     3.83155
    22.80000    89.57581   358.15957     3.83165    90.42419     1.84043     3.83165
    22.90000    89.57583   358.15967     3.83175    90.42417     1.84033     3.83175
    23.00000    89.57586   358.15976     3.83184    90.42414     1.84024     3.83184
    23.10000    89.57588   358.15986     3.83194    90.42412     1.84014     3.83194
    23.20000    89.57590   358.15996     3.83204    90.42410     1.84004     3.83204
    23.30000    89.57592   358.16005     3.83214    90.42408     1.83995     3.83214
