 # applied field (T), theta (degree), phi (degree), abs [muB/unitcell], abs [T]
       0.00000000       0.00000000       0.00000000      34.70673077       1.16817076
       0.10000000       3.43848614     360.00000000      34.70650579       1.16816319
       0.20000000      90.00000000     360.00000000      34.72461098       1.16877258
       0.30000000      90.00000000     360.00000000      34.72484059       1.16878031
       0.40000000      90.00000000     360.00000000      34.72507018       1.16878803
       0.50000000      90.00000000     360.00000000      34.72529974       1.16879576
       0.60000000      90.00000000     360.00000000      34.72552929       1.16880349
       0.70000000      90.00000000     360.00000000      34.72575880       1.16881121
       0.80000000      90.00000000     360.00000000      34.72598830       1.16881894
       0.90000000      90.00000000     360.00000000      34.72621777       1.16882666
       1.00000000      90.00000000     360.00000000      34.72644722       1.16883438
       1.10000000      90.00000000     360.00000000      34.72667665       1.16884211
       1.20000000      90.00000000     360.00000000      34.72690605       1.16884983
       1.30000000      90.00000000     360.00000000      34.72713543       1.16885755
       1.40000000      90.00000000     360.00000000      34.72736478       1.16886527
       1.50000000      90.00000000     360.00000000      34.72759412       1.16887299
       1.60000000      90.00000000     360.00000000      34.72782342       1.16888070
       1.70000000      90.00000000     360.00000000      34.72805271       1.16888842
       1.80000000      90.00000000     360.00000000      34.72828197       1.16889614
       1.90000000      90.00000000     360.00000000      34.72851121       1.16890385
       2.00000000      90.00000000     360.00000000      34.72874043       1.16891157
       2.10000000      90.00000000     360.00000000      34.72896962       1.16891928
       2.20000000      90.00000000     360.00000000      34.72919879       1.16892700
       2.30000000      90.00000000     360.00000000      34.72942794       1.16893471
       2.40000000      90.00000000     360.00000000      34.72965706       1.16894242
       2.50000000      90.00000000     360.00000000      34.72988616       1.16895013
       2.60000000      90.00000000     360.00000000      34.73011524       1.16895784
       2.70000000      90.00000000     360.00000000      34.73034429       1.16896555
       2.80000000      90.00000000     360.00000000      34.73057332       1.16897326
       2.90000000      90.00000000     360.00000000      34.73080233       1.16898097
       3.00000000      90.00000000     360.00000000      34.73103131       1.16898868
       3.10000000      90.00000000     360.00000000      34.73126028       1.16899638
       3.20000000      90.00000000     360.00000000      34.73148921       1.16900409
       3.30000000      90.00000000     360.00000000      34.73171813       1.16901179
       3.40000000      90.00000000     360.00000000      34.73194702       1.16901950
       3.50000000      90.00000000     360.00000000      34.73217589       1.16902720
       3.60000000      90.00000000     360.00000000      34.73240473       1.16903490
       3.70000000      90.00000000     360.00000000      34.73263356       1.16904260
       3.80000000      90.00000000     360.00000000      34.73286236       1.16905031
       3.90000000      90.00000000     360.00000000      34.73309113       1.16905801
       4.00000000      90.00000000     360.00000000      34.73331989       1.16906571
       4.10000000      90.00000000     360.00000000      34.73354862       1.16907340
       4.20000000      90.00000000     360.00000000      34.73377732       1.16908110
       4.30000000      90.00000000     360.00000000      34.73400601       1.16908880
       4.40000000      90.00000000     360.00000000      34.73423467       1.16909650
       4.50000000      90.00000000     360.00000000      34.73446331       1.16910419
       4.60000000      90.00000000     360.00000000      34.73469192       1.16911189
       4.70000000      90.00000000     360.00000000      34.73492051       1.16911958
       4.80000000      90.00000000     360.00000000      34.73514908       1.16912727
       4.90000000      90.00000000     360.00000000      34.73537763       1.16913497
       5.00000000      90.00000000     360.00000000      34.73560615       1.16914266
       5.10000000      90.00000000     360.00000000      34.73583465       1.16915035
       5.20000000      90.00000000     360.00000000      34.73606313       1.16915804
       5.30000000      90.00000000     360.00000000      34.73629159       1.16916573
       5.40000000      90.00000000     360.00000000      34.73652002       1.16917342
       5.50000000      90.00000000     360.00000000      34.73674843       1.16918110
       5.60000000      90.00000000     360.00000000      34.73697681       1.16918879
       5.70000000      90.00000000     360.00000000      34.73720517       1.16919648
       5.80000000      90.00000000     360.00000000      34.73743351       1.16920416
       5.90000000      90.00000000     360.00000000      34.73766183       1.16921185
       6.00000000      90.00000000     360.00000000      34.73789012       1.16921953
       6.10000000      90.00000000     360.00000000      34.73811839       1.16922722
       6.20000000      90.00000000     360.00000000      34.73834664       1.16923490
       6.30000000      90.00000000     360.00000000      34.73857487       1.16924258
       6.40000000      90.00000000     360.00000000      34.73880307       1.16925026
       6.50000000      90.00000000     360.00000000      34.73903125       1.16925794
       6.60000000      90.00000000     360.00000000      34.73925941       1.16926562
       6.70000000      90.00000000     360.00000000      34.73948754       1.16927330
       6.80000000      90.00000000     360.00000000      34.73971565       1.16928098
       6.90000000      90.00000000     360.00000000      34.73994374       1.16928865
       7.00000000      90.00000000     360.00000000      34.74017181       1.16929633
       7.10000000      90.00000000     360.00000000      34.74039985       1.16930401
       7.20000000      90.00000000     360.00000000      34.74062787       1.16931168
       7.30000000      90.00000000     360.00000000      34.74085587       1.16931935
       7.40000000      90.00000000     360.00000000      34.74108384       1.16932703
       7.50000000      90.00000000     360.00000000      34.74131179       1.16933470
       7.60000000      90.00000000     360.00000000      34.74153972       1.16934237
       7.70000000      90.00000000     360.00000000      34.74176763       1.16935004
       7.80000000      90.00000000     360.00000000      34.74199551       1.16935771
       7.90000000      90.00000000     360.00000000      34.74222337       1.16936538
       8.00000000      90.00000000     360.00000000      34.74245121       1.16937305
       8.10000000      90.00000000     360.00000000      34.74267903       1.16938072
       8.20000000      90.00000000     360.00000000      34.74290682       1.16938839
       8.30000000      90.00000000     360.00000000      34.74313459       1.16939605
       8.40000000      90.00000000     360.00000000      34.74336233       1.16940372
       8.50000000      90.00000000     360.00000000      34.74359006       1.16941138
       8.60000000      90.00000000     360.00000000      34.74381776       1.16941905
       8.70000000      90.00000000     360.00000000      34.74404544       1.16942671
       8.80000000      90.00000000     360.00000000      34.74427310       1.16943437
       8.90000000      90.00000000     360.00000000      34.74450073       1.16944203
       9.00000000      90.00000000     360.00000000      34.74472834       1.16944970
       9.10000000      90.00000000     360.00000000      34.74495593       1.16945736
       9.20000000      90.00000000     360.00000000      34.74518350       1.16946501
       9.30000000      90.00000000     360.00000000      34.74541104       1.16947267
       9.40000000      90.00000000     360.00000000      34.74563856       1.16948033
       9.50000000      90.00000000     360.00000000      34.74586606       1.16948799
       9.60000000      90.00000000     360.00000000      34.74609354       1.16949565
       9.70000000      90.00000000     360.00000000      34.74632099       1.16950330
       9.80000000      90.00000000     360.00000000      34.74654842       1.16951096
       9.90000000      90.00000000     360.00000000      34.74677583       1.16951861
      10.00000000      90.00000000     360.00000000      34.74700321       1.16952626
      10.10000000      90.00000000     360.00000000      34.74723058       1.16953392
      10.20000000      90.00000000     360.00000000      34.74745792       1.16954157
      10.30000000      90.00000000     360.00000000      34.74768523       1.16954922
      10.40000000      90.00000000     360.00000000      34.74791253       1.16955687
      10.50000000      90.00000000     360.00000000      34.74813980       1.16956452
      10.60000000      90.00000000     360.00000000      34.74836705       1.16957217
      10.70000000      90.00000000     360.00000000      34.74859428       1.16957982
      10.80000000      90.00000000     360.00000000      34.74882149       1.16958746
      10.90000000      90.00000000     360.00000000      34.74904867       1.16959511
      11.00000000      90.00000000     360.00000000      34.74927583       1.16960276
      11.10000000      90.00000000     360.00000000      34.74950297       1.16961040
      11.20000000      90.00000000     360.00000000      34.74973008       1.16961805
      11.30000000      90.00000000     360.00000000      34.74995718       1.16962569
      11.40000000      90.00000000     360.00000000      34.75018425       1.16963333
      11.50000000      90.00000000     360.00000000      34.75041129       1.16964097
      11.60000000      90.00000000     360.00000000      34.75063832       1.16964862
      11.70000000      90.00000000     360.00000000      34.75086532       1.16965626
      11.80000000      90.00000000     360.00000000      34.75109230       1.16966390
      11.90000000      90.00000000     360.00000000      34.75131926       1.16967153
      12.00000000      90.00000000     360.00000000      34.75154620       1.16967917
      12.10000000      90.00000000     360.00000000      34.75177311       1.16968681
      12.20000000      90.00000000     360.00000000      34.75200001       1.16969445
      12.30000000      90.00000000     360.00000000      34.75222687       1.16970208
      12.40000000      90.00000000     360.00000000      34.75245372       1.16970972
      12.50000000      90.00000000     360.00000000      34.75268055       1.16971735
      12.60000000      90.00000000     360.00000000      34.75290735       1.16972499
      12.70000000      90.00000000     360.00000000      34.75313413       1.16973262
      12.80000000      90.00000000     360.00000000      34.75336089       1.16974025
      12.90000000      90.00000000     360.00000000      34.75358762       1.16974788
      13.00000000      90.00000000     360.00000000      34.75381433       1.16975551
      13.10000000      90.00000000     360.00000000      34.75404103       1.16976314
      13.20000000      90.00000000     360.00000000      34.75426769       1.16977077
      13.30000000      90.00000000     360.00000000      34.75449434       1.16977840
      13.40000000      90.00000000     360.00000000      34.75472096       1.16978603
      13.50000000      90.00000000     360.00000000      34.75494757       1.16979366
      13.60000000      90.00000000     360.00000000      34.75517415       1.16980128
      13.70000000      90.00000000     360.00000000      34.75540070       1.16980891
      13.80000000      90.00000000     360.00000000      34.75562724       1.16981653
      13.90000000      90.00000000     360.00000000      34.75585375       1.16982416
      14.00000000      90.00000000     360.00000000      34.75608024       1.16983178
      14.10000000      90.00000000     360.00000000      34.75630671       1.16983940
      14.20000000      90.00000000     360.00000000      34.75653316       1.16984703
      14.30000000      90.00000000     360.00000000      34.75675958       1.16985465
      14.40000000      90.00000000     360.00000000      34.75698598       1.16986227
      14.50000000      90.00000000     360.00000000      34.75721236       1.16986989
      14.60000000      90.00000000     360.00000000      34.75743872       1.16987751
      14.70000000      90.00000000     360.00000000      34.75766505       1.16988512
      14.80000000      90.00000000     360.00000000      34.75789137       1.16989274
      14.90000000      90.00000000     360.00000000      34.75811766       1.16990036
      15.00000000      90.00000000     360.00000000      34.75834393       1.16990797
      15.10000000      90.00000000     360.00000000      34.75857017       1.16991559
      15.20000000      90.00000000     360.00000000      34.75879640       1.16992320
      15.30000000      90.00000000     360.00000000      34.75902260       1.16993082
      15.40000000      90.00000000     360.00000000      34.75924878       1.16993843
      15.50000000      90.00000000     360.00000000      34.75947494       1.16994604
      15.60000000      90.00000000     360.00000000      34.75970108       1.16995365
      15.70000000      90.00000000     360.00000000      34.75992719       1.16996126
      15.80000000      90.00000000     360.00000000      34.76015329       1.16996887
      15.90000000      90.00000000     360.00000000      34.76037936       1.16997648
      16.00000000      90.00000000     360.00000000      34.76060540       1.16998409
      16.10000000      90.00000000     360.00000000      34.76083143       1.16999170
      16.20000000      90.00000000     360.00000000      34.76105743       1.16999931
      16.30000000      90.00000000     360.00000000      34.76128342       1.17000691
      16.40000000      90.00000000     360.00000000      34.76150938       1.17001452
      16.50000000      90.00000000     360.00000000      34.76173532       1.17002212
      16.60000000      90.00000000     360.00000000      34.76196123       1.17002973
      16.70000000      90.00000000     360.00000000      34.76218713       1.17003733
      16.80000000      90.00000000     360.00000000      34.76241300       1.17004493
      16.90000000      90.00000000     360.00000000      34.76263885       1.17005253
      17.00000000      90.00000000     360.00000000      34.76286468       1.17006013
      17.10000000      90.00000000     360.00000000      34.76309048       1.17006773
      17.20000000      90.00000000     360.00000000      34.76331627       1.17007533
      17.30000000      90.00000000     360.00000000      34.76354203       1.17008293
      17.40000000      90.00000000     360.00000000      34.76376777       1.17009053
      17.50000000      90.00000000     360.00000000      34.76399349       1.17009813
      17.60000000      90.00000000     360.00000000      34.76421919       1.17010572
      17.70000000      90.00000000     360.00000000      34.76444486       1.17011332
      17.80000000      90.00000000     360.00000000      34.76467052       1.17012092
      17.90000000      90.00000000     360.00000000      34.76489615       1.17012851
      18.00000000      90.00000000     360.00000000      34.76512176       1.17013610
      18.10000000      90.00000000     360.00000000      34.76534734       1.17014370
      18.20000000      90.00000000     360.00000000      34.76557291       1.17015129
      18.30000000      90.00000000     360.00000000      34.76579845       1.17015888
      18.40000000      90.00000000     360.00000000      34.76602398       1.17016647
      18.50000000      90.00000000     360.00000000      34.76624948       1.17017406
      18.60000000      90.00000000     360.00000000      34.76647496       1.17018165
      18.70000000      90.00000000     360.00000000      34.76670041       1.17018924
      18.80000000      90.00000000     360.00000000      34.76692585       1.17019683
      18.90000000      90.00000000     360.00000000      34.76715126       1.17020441
      19.00000000      90.00000000     360.00000000      34.76737665       1.17021200
      19.10000000      90.00000000     360.00000000      34.76760202       1.17021958
      19.20000000      90.00000000     360.00000000      34.76782737       1.17022717
      19.30000000      90.00000000     360.00000000      34.76805269       1.17023475
      19.40000000      90.00000000     360.00000000      34.76827800       1.17024234
      19.50000000      90.00000000     360.00000000      34.76850328       1.17024992
      19.60000000      90.00000000     360.00000000      34.76872854       1.17025750
      19.70000000      90.00000000     360.00000000      34.76895378       1.17026508
      19.80000000      90.00000000     360.00000000      34.76917900       1.17027266
      19.90000000      90.00000000     360.00000000      34.76940419       1.17028024
      20.00000000      90.00000000     360.00000000      34.76962937       1.17028782
      20.10000000      90.00000000     360.00000000      34.76985452       1.17029540
      20.20000000      90.00000000     360.00000000      34.77007965       1.17030298
      20.30000000      90.00000000     360.00000000      34.77030476       1.17031055
      20.40000000      90.00000000     360.00000000      34.77052985       1.17031813
      20.50000000      90.00000000     360.00000000      34.77075491       1.17032571
      20.60000000      90.00000000     360.00000000      34.77097996       1.17033328
      20.70000000      90.00000000     360.00000000      34.77120498       1.17034085
      20.80000000      90.00000000     360.00000000      34.77142998       1.17034843
      20.90000000      90.00000000     360.00000000      34.77165496       1.17035600
      21.00000000      90.00000000     360.00000000      34.77187992       1.17036357
      21.10000000      90.00000000     360.00000000      34.77210485       1.17037114
      21.20000000      90.00000000     360.00000000      34.77232977       1.17037871
      21.30000000      90.00000000     360.00000000      34.77255466       1.17038628
      21.40000000      90.00000000     360.00000000      34.77277953       1.17039385
      21.50000000      90.00000000     360.00000000      34.77300438       1.17040142
      21.60000000      90.00000000     360.00000000      34.77322921       1.17040899
      21.70000000      90.00000000     360.00000000      34.77345402       1.17041655
      21.80000000      90.00000000     360.00000000      34.77367880       1.17042412
      21.90000000      90.00000000     360.00000000      34.77390356       1.17043168
      22.00000000      90.00000000     360.00000000      34.77412831       1.17043925
      22.10000000      90.00000000     360.00000000      34.77435303       1.17044681
      22.20000000      90.00000000     360.00000000      34.77457773       1.17045438
      22.30000000      90.00000000     360.00000000      34.77480240       1.17046194
      22.40000000      90.00000000     360.00000000      34.77502706       1.17046950
      22.50000000      90.00000000     360.00000000      34.77525169       1.17047706
      22.60000000      90.00000000     360.00000000      34.77547631       1.17048462
      22.70000000      90.00000000     360.00000000      34.77570090       1.17049218
      22.80000000      90.00000000     360.00000000      34.77592547       1.17049974
      22.90000000      90.00000000     360.00000000      34.77615002       1.17050730
      23.00000000      90.00000000     360.00000000      34.77637454       1.17051485
