 # applied field (T), theta (degree), phi (degree), abs [muB/unitcell], abs [T]
       0.00000000       0.00000000       0.00000000      35.82268992       1.20573209
       0.10000000       0.28400974      45.00000000      35.82268388       1.20573188
       0.20000000       0.62467343      45.00000000      35.82266010       1.20573108
       0.30000000       0.90868405      45.00000000      35.82262719       1.20572998
       0.40000000       1.19269547      45.00000000      35.82258219       1.20572846
       0.50000000       1.53336228      45.00000000      35.82251089       1.20572606
       0.60000000       1.81737635      45.00000000      35.82243905       1.20572364
       0.70000000       2.10139203      45.00000000      35.82235514       1.20572082
       0.80000000       2.44206505      45.00000000      35.82223639       1.20571682
       0.90000000       2.72608515      45.00000000      35.82212570       1.20571310
       1.00000000       3.01010764      45.00000000      35.82200296       1.20570896
       1.10000000       3.35078999      45.00000000      35.82183688       1.20570337
       1.20000000       3.63481867      45.00000000      35.82168745       1.20569835
       1.30000000       3.97550925      45.00000000      35.82148883       1.20569166
       1.40000000       4.25954531      45.00000000      35.82131277       1.20568573
       1.50000000       4.54358512      45.00000000      35.82112475       1.20567941
       1.60000000       4.88429025      45.00000000      35.82087911       1.20567114
       1.70000000       5.16833921      45.00000000      35.82066460       1.20566392
       1.80000000       5.45239269      45.00000000      35.82043819       1.20565630
       1.90000000       5.79311546      45.00000000      35.82014577       1.20564645
       2.00000000       6.07717984      45.00000000      35.81989302       1.20563795
       2.10000000       6.36124953      45.00000000      35.81962844       1.20562904
       2.20000000       6.70199300      45.00000000      35.81928955       1.20561764
       2.30000000       6.98607532      45.00000000      35.81899882       1.20560785
       2.40000000       7.27016375      45.00000000      35.81869635       1.20559767
       2.50000000       7.61093096      45.00000000      35.81831133       1.20558471
       2.60000000       7.89503374      45.00000000      35.81798291       1.20557366
       2.70000000       8.23581907      45.00000000      35.81756630       1.20555963
       2.80000000       8.51993739      45.00000000      35.81721210       1.20554771
       2.90000000       8.80406313      45.00000000      35.81684633       1.20553540
       3.00000000       9.14487730      45.00000000      35.81638427       1.20551985
       3.10000000       9.42902029      45.00000000      35.81599297       1.20550668
       3.20000000       9.71317145      45.00000000      35.81559024       1.20549312
       3.30000000      10.05401746      45.00000000      35.81508319       1.20547606
       3.40000000      10.33818757      45.00000000      35.81465520       1.20546165
       3.50000000      10.67905723      45.00000000      35.81411742       1.20544355
       3.60000000      10.96324743      45.00000000      35.81366438       1.20542830
       3.70000000      11.24744709      45.00000000      35.81320013       1.20541268
       3.80000000      11.58835359      45.00000000      35.81261826       1.20539309
       3.90000000      11.87257501      45.00000000      35.81212929       1.20537663
       4.00000000      12.15680664      45.00000000      35.81162926       1.20535980
       4.10000000      12.49775289      45.00000000      35.81100388       1.20533875
       4.20000000      12.78200793      45.00000000      35.81047948       1.20532110
       4.30000000      13.12298323      45.00000000      35.80982446       1.20529906
       4.40000000      13.40726280      45.00000000      35.80927592       1.20528059
       4.50000000      13.69155383      45.00000000      35.80871662       1.20526177
       4.60000000      14.03257374      45.00000000      35.80801917       1.20523829
       4.70000000      14.31689091      45.00000000      35.80743613       1.20521867
       4.80000000      14.65794318      45.00000000      35.80670984       1.20519422
       4.90000000      14.94228761      45.00000000      35.80610334       1.20517381
       5.00000000      15.22664471      45.00000000      35.80548638       1.20515304
       5.10000000      15.56774633      45.00000000      35.80471888       1.20512721
       5.20000000      15.85213226      45.00000000      35.80407890       1.20510567
       5.30000000      16.19326948      45.00000000      35.80328342       1.20507890
       5.40000000      16.47768531      45.00000000      35.80262071       1.20505659
       5.50000000      16.81885943      45.00000000      35.80179763       1.20502889
       5.60000000      17.10330622      45.00000000      35.80111253       1.20500583
       5.70000000      17.38776735      45.00000000      35.80041747       1.20498243
       5.80000000      17.72899732      45.00000000      35.79955508       1.20495341
       5.90000000      18.01349094      45.00000000      35.79883810       1.20492927
       6.00000000      18.35476092      45.00000000      35.79794909       1.20489935
       6.10000000      18.63928806      45.00000000      35.79721055       1.20487449
       6.20000000      18.98059930      45.00000000      35.79629535       1.20484369
       6.30000000      19.26516097      45.00000000      35.79553559       1.20481812
       6.40000000      19.60651471      45.00000000      35.79459463       1.20478645
       6.50000000      19.89111193      45.00000000      35.79381402       1.20476017
       6.60000000      20.17572554      45.00000000      35.79302417       1.20473359
       6.70000000      20.51714312      45.00000000      35.79204668       1.20470069
       6.80000000      20.80179371      45.00000000      35.79123653       1.20467342
       6.90000000      21.14325674      45.00000000      35.79023440       1.20463969
       7.00000000      21.42794529      45.00000000      35.78940435       1.20461175
       7.10000000      21.76945493      45.00000000      35.78837806       1.20457721
       7.20000000      22.05418239      45.00000000      35.78752850       1.20454861
       7.30000000      22.39573980      45.00000000      35.78647854       1.20451327
       7.40000000      22.68050712      45.00000000      35.78560988       1.20448403
       7.50000000      23.02211344      45.00000000      35.78453674       1.20444791
       7.60000000      23.30692154      45.00000000      35.78364941       1.20441805
       7.70000000      23.64857789      45.00000000      35.78255361       1.20438117
       7.80000000      23.93342769      45.00000000      35.78164803       1.20435068
       7.90000000      24.27513517      45.00000000      35.78053008       1.20431306
       8.00000000      24.56002757      45.00000000      35.77960668       1.20428198
       8.10000000      24.90178725      45.00000000      35.77846712       1.20424362
       8.20000000      25.18672312      45.00000000      35.77752636       1.20421196
       8.30000000      25.52853608      45.00000000      35.77636573       1.20417289
       8.40000000      25.87037869      45.00000000      35.77519371       1.20413344
       8.50000000      26.15538356      45.00000000      35.77422691       1.20410090
       8.60000000      26.49728104      45.00000000      35.77303468       1.20406077
       8.70000000      26.78233156      45.00000000      35.77205168       1.20402769
       8.80000000      27.12428492      45.00000000      35.77083981       1.20398690
       8.90000000      27.40938190      45.00000000      35.76984109       1.20395328
       9.00000000      27.75139214      45.00000000      35.76861015       1.20391185
       9.10000000      28.09343396      45.00000000      35.76736893       1.20387007
       9.20000000      28.37860445      45.00000000      35.76634678       1.20383567
       9.30000000      28.72070464      45.00000000      35.76508740       1.20379328
       9.40000000      29.00592359      45.00000000      35.76405077       1.20375839
       9.50000000      29.34808306      45.00000000      35.76277384       1.20371541
       9.60000000      29.69027544      45.00000000      35.76148747       1.20367211
       9.70000000      29.97557091      45.00000000      35.76042937       1.20363650
       9.80000000      30.31782397      45.00000000      35.75912639       1.20359264
       9.90000000      30.66011068      45.00000000      35.75781450       1.20354849
      10.00000000      30.94548441      45.00000000      35.75673614       1.20351219
      10.10000000      31.28783315      45.00000000      35.75540861       1.20346751
      10.20000000      31.63021626      45.00000000      35.75407269       1.20342254
      10.30000000      31.91566992      45.00000000      35.75297534       1.20338561
      10.40000000      32.25811633      45.00000000      35.75162477       1.20334015
      10.50000000      32.60059781      45.00000000      35.75026636       1.20329443
      10.60000000      32.88613298      45.00000000      35.74915129       1.20325690
      10.70000000      33.22867899      45.00000000      35.74777923       1.20321072
      10.80000000      33.57126072      45.00000000      35.74639989       1.20316429
      10.90000000      33.91387839      45.00000000      35.74501346       1.20311763
      11.00000000      34.19952633      45.00000000      35.74387645       1.20307936
      11.10000000      34.54221010      45.00000000      35.74247777       1.20303228
      11.20000000      34.88493041      45.00000000      35.74107257       1.20298498
      11.30000000      35.22768749      45.00000000      35.73966105       1.20293747
      11.40000000      35.57048152      45.00000000      35.73824343       1.20288976
      11.50000000      35.85627538      45.00000000      35.73708218       1.20285067
      11.60000000      36.19913731      45.00000000      35.73565410       1.20280261
      11.70000000      36.54203675      45.00000000      35.73422049       1.20275435
      11.80000000      36.88497389      45.00000000      35.73278156       1.20270592
      11.90000000      37.22794892      45.00000000      35.73133753       1.20265732
      12.00000000      37.57096200      45.00000000      35.72988860       1.20260855
      12.10000000      37.85693689      45.00000000      35.72870338       1.20256866
      12.20000000      38.20001977      45.00000000      35.72724622       1.20251961
      12.30000000      38.54314119      45.00000000      35.72578477       1.20247042
      12.40000000      38.88630130      45.00000000      35.72431923       1.20242109
      12.50000000      39.22950025      45.00000000      35.72284982       1.20237164
      12.60000000      39.57273819      45.00000000      35.72137676       1.20232205
      12.70000000      39.91601526      45.00000000      35.71990027       1.20227236
      12.80000000      40.25933162      45.00000000      35.71842055       1.20222255
      12.90000000      40.60268737      45.00000000      35.71693784       1.20217265
      13.00000000      40.94608267      45.00000000      35.71545235       1.20212265
      13.10000000      41.28951762      45.00000000      35.71396430       1.20207256
      13.20000000      41.63299235      45.00000000      35.71247391       1.20202240
      13.30000000      41.97650697      45.00000000      35.71098141       1.20197216
      13.40000000      42.32006159      45.00000000      35.70948701       1.20192187
      13.50000000      42.72083075      45.00000000      35.70771284       1.20186215
      13.60000000      43.06447284      45.00000000      35.70621492       1.20181173
      13.70000000      43.40815523      45.00000000      35.70471581       1.20176127
      13.80000000      43.75187802      45.00000000      35.70321575       1.20171078
      13.90000000      44.09564128      45.00000000      35.70171495       1.20166027
      14.00000000      44.43944507      45.00000000      35.70021366       1.20160974
      14.10000000      44.84050853      45.00000000      35.69843205       1.20154977
      14.20000000      45.18440088      45.00000000      35.69693026       1.20149923
      14.30000000      45.52833398      45.00000000      35.69542868       1.20144869
      14.40000000      45.92955008      45.00000000      35.69364709       1.20138872
      14.50000000      46.27357211      45.00000000      35.69214661       1.20133822
      14.60000000      46.61763502      45.00000000      35.69064707       1.20128774
      14.70000000      47.01900434      45.00000000      35.68886821       1.20122787
      14.80000000      47.36315643      45.00000000      35.68737135       1.20117749
      14.90000000      47.70734948      45.00000000      35.68587617       1.20112716
      15.00000000      48.10887235      45.00000000      35.68410276       1.20106747
      15.10000000      48.45315470      45.00000000      35.68261186       1.20101729
      15.20000000      48.85478291      45.00000000      35.68084370       1.20095778
      15.30000000      49.25646813      45.00000000      35.67907881       1.20089838
      15.40000000      49.60088809      45.00000000      35.67759655       1.20084849
      15.50000000      50.00267859      45.00000000      35.67583891       1.20078933
      15.60000000      50.34718773      45.00000000      35.67436372       1.20073967
      15.70000000      50.74908339      45.00000000      35.67261460       1.20068080
      15.80000000      51.15103588      45.00000000      35.67087053       1.20062210
      15.90000000      51.55304514      45.00000000      35.66913189       1.20056358
      16.00000000      51.95511108      45.00000000      35.66739904       1.20050525
      16.10000000      52.29985328      45.00000000      35.66594738       1.20045639
      16.20000000      52.70202365      45.00000000      35.66422647       1.20039847
      16.30000000      53.10425039      45.00000000      35.66251245       1.20034078
      16.40000000      53.50653337      45.00000000      35.66080569       1.20028333
      16.50000000      53.90887244      45.00000000      35.65910657       1.20022614
      16.60000000      54.31126744      45.00000000      35.65741548       1.20016922
      16.70000000      54.71371821      45.00000000      35.65573278       1.20011259
      16.80000000      55.17366498      45.00000000      35.65379063       1.20004722
      16.90000000      55.57623520      45.00000000      35.65212706       1.19999122
      17.00000000      55.97886054      45.00000000      35.65047309       1.19993555
      17.10000000      56.43900794      45.00000000      35.64856475       1.19987132
      17.20000000      56.84175125      45.00000000      35.64693245       1.19981638
      17.30000000      57.24454893      45.00000000      35.64531093       1.19976181
      17.40000000      57.70489427      45.00000000      35.64344068       1.19969886
      17.50000000      58.16531129      45.00000000      35.64158524       1.19963640
      17.60000000      58.56828687      45.00000000      35.64000149       1.19958310
      17.70000000      59.02883642      45.00000000      35.63817547       1.19952164
      17.80000000      59.48945631      45.00000000      35.63636586       1.19946073
      17.90000000      59.95014602      45.00000000      35.63457324       1.19940039
      18.00000000      60.41090502      45.00000000      35.63279815       1.19934065
      18.10000000      60.87173275      45.00000000      35.63104115       1.19928151
      18.20000000      61.33262862      45.00000000      35.62930279       1.19922300
      18.30000000      61.79359200      45.00000000      35.62758362       1.19916513
      18.40000000      62.31220888      45.00000000      35.62564493       1.19909988
      18.50000000      62.77331428      45.00000000      35.62396823       1.19904345
      18.60000000      63.29209066      45.00000000      35.62207842       1.19897984
      18.70000000      63.81095041      45.00000000      35.62021555       1.19891714
      18.80000000      64.27226723      45.00000000      35.61860846       1.19886304
      18.90000000      64.79128083      45.00000000      35.61679864       1.19880213
      19.00000000      65.36801907      45.00000000      35.61479611       1.19873473
      19.10000000      65.88720132      45.00000000      35.61304852       1.19867591
      19.20000000      66.40646125      45.00000000      35.61133161       1.19861812
      19.30000000      66.98347100      45.00000000      35.60943465       1.19855427
      19.40000000      67.56057492      45.00000000      35.60757721       1.19849175
      19.50000000      68.13777117      45.00000000      35.60576028       1.19843060
      19.60000000      68.71505786      45.00000000      35.60398481       1.19837084
      19.70000000      69.35014658      45.00000000      35.60205688       1.19830595
      19.80000000      69.98534129      45.00000000      35.60018130       1.19824282
      19.90000000      70.62063922      45.00000000      35.59835931       1.19818149
      20.00000000      71.25603752      45.00000000      35.59659211       1.19812201
      20.10000000      71.94928724      45.00000000      35.59470598       1.19805853
      20.20000000      72.64265061      45.00000000      35.59288774       1.19799733
      20.30000000      73.39389828      45.00000000      35.59097584       1.19793298
      20.40000000      74.14527094      45.00000000      35.58914696       1.19787142
      20.50000000      74.95455863      45.00000000      35.58725319       1.19780768
      20.60000000      75.82178594      45.00000000      35.58531768       1.19774253
      20.70000000      76.68915909      45.00000000      35.58349958       1.19768134
      20.80000000      77.61449583      45.00000000      35.58167560       1.19761995
      20.90000000      78.65565322      45.00000000      35.57975824       1.19755541
      21.00000000      79.75483042      45.00000000      35.57791461       1.19749336
      21.10000000      81.02775622      45.00000000      35.57599401       1.19742871
      21.20000000      82.47449564      45.00000000      35.57411407       1.19736544
      21.30000000      84.26873646      45.00000000      35.57222945       1.19730200
      21.40000000      86.98947954      45.00000000      35.57033288       1.19723817
      21.50000000      90.00000000      45.00000000      35.56976594       1.19721909
      21.60000000      90.00000000      45.00000000      35.57002276       1.19722773
      21.70000000      90.00000000      45.00000000      35.57027956       1.19723637
      21.80000000      90.00000000      45.00000000      35.57053634       1.19724502
      21.90000000      90.00000000      45.00000000      35.57079309       1.19725366
      22.00000000      90.00000000      45.00000000      35.57104983       1.19726230
      22.10000000      90.00000000      45.00000000      35.57130654       1.19727094
      22.20000000      90.00000000      45.00000000      35.57156324       1.19727958
      22.30000000      90.00000000      45.00000000      35.57181991       1.19728822
      22.40000000      90.00000000      45.00000000      35.57207655       1.19729686
      22.50000000      90.00000000      45.00000000      35.57233318       1.19730550
      22.60000000      90.00000000      45.00000000      35.57258979       1.19731413
      22.70000000      90.00000000      45.00000000      35.57284637       1.19732277
      22.80000000      90.00000000      45.00000000      35.57310293       1.19733140
      22.90000000      90.00000000      45.00000000      35.57335948       1.19734004
      23.00000000      90.00000000      45.00000000      35.57361600       1.19734867
