 # applied field (T), theta (degree), phi (degree), abs for RE 1-2
     0.00000   179.68529   135.00000     3.55240   179.68529    45.00000     3.55240
     0.10000   178.72653   169.01296     3.55257   179.16984   165.86889     3.55253
     0.20000   177.70724   173.41529     3.55264   178.15780   174.30502     3.55256
     0.30000   176.68272   175.10329     3.55261   177.13357   176.74194     3.55249
     0.40000   175.65651   175.99383     3.55248   176.10616   177.89575     3.55230
     0.50000   174.57526   176.56678     3.55225   175.02273   178.59611     3.55199
     0.60000   173.54736   176.93283     3.55194   173.99208   179.02811     3.55158
     0.70000   172.51874   177.19803     3.55153   172.96012   179.33420     3.55105
     0.80000   171.43514   177.40814     3.55100   171.87239   179.57299     3.55036
     0.90000   170.35061   177.57082     3.55038   170.78316   179.75599     3.54954
     1.00000   169.31940   177.69454     3.54970   169.74696   179.89433     3.54864
     1.10000   168.23279   177.80117     3.54889   168.65458   180.01314     3.54756
     1.20000   167.09050   177.89363     3.54795   167.50569   180.11603     3.54627
     1.30000   166.00127   177.96746     3.54696   166.40968   180.19833     3.54490
     1.40000   164.85599   178.03340     3.54583   165.25680   180.27203     3.54331
     1.50000   163.70902   178.08991     3.54462   164.10175   180.33550     3.54157
     1.60000   162.56024   178.13884     3.54332   162.94444   180.39081     3.53968
     1.70000   161.35468   178.18349     3.54187   161.72948   180.44168     3.53753
     1.80000   160.14692   178.22259     3.54034   160.51187   180.48665     3.53522
     1.90000   158.93685   178.25708     3.53873   159.29151   180.52676     3.53275
     2.00000   157.66919   178.28904     3.53697   158.01263   180.56436     3.53000
     2.10000   156.39882   178.31746     3.53514   156.73057   180.59826     3.52709
     2.20000   155.07020   178.34394     3.53317   155.38927   180.63031     3.52388
     2.30000   153.68288   178.36862     3.53104   153.98818   180.66064     3.52036
     2.40000   152.29209   178.39075     3.52885   152.58304   180.68835     3.51667
     2.50000   150.84191   178.41149     3.52652   151.11729   180.71478     3.51267
     2.60000   149.27581   178.43162     3.52395   149.53363   180.74094     3.50820
     2.70000   147.70520   178.44978     3.52135   147.94459   180.76509     3.50358
     2.80000   146.07370   178.46685     3.51862   146.29303   180.78828     3.49866
     2.90000   144.32429   178.48343     3.51567   144.52098   180.81133     3.49328
     3.00000   142.51266   178.49901     3.51262   142.68461   180.83356     3.48766
     3.10000   140.58145   178.51415     3.50939   140.72550   180.85570     3.48166
     3.20000   138.47255   178.52925     3.50590   138.58428   180.87836     3.47517
     3.30000   136.24170   178.54389     3.50227   136.31712   180.90093     3.46848
     3.40000   133.77292   178.55883     3.49835   133.80573   180.92455     3.46139
     3.50000   131.06411   178.57403     3.49420   131.04752   180.94915     3.45416
     3.60000   127.99732   178.59013     3.48971   127.92217   180.97569     3.44685
     3.70000   124.51116   178.60745     3.48491   124.36745   181.00450     3.43992
     3.80000   120.25122   178.62778     3.47952   120.02380   181.03804     3.43373
     3.90000   114.68116   178.65390     3.47327   114.35066   181.07929     3.42968
     4.00000   106.30962   178.69390     3.46557   105.85341   181.13539     3.43190
     4.10000    90.27686   178.77828     3.45637    89.72314   181.22172     3.45637
     4.20000    90.27688   178.77823     3.45636    89.72312   181.22177     3.45636
     4.30000    90.27689   178.77818     3.45635    89.72311   181.22182     3.45635
     4.40000    90.27690   178.77812     3.45634    89.72310   181.22188     3.45634
     4.50000    90.27691   178.77807     3.45634    89.72309   181.22193     3.45634
     4.60000    90.27693   178.77802     3.45633    89.72307   181.22198     3.45633
     4.70000    90.27694   178.77797     3.45632    89.72306   181.22203     3.45632
     4.80000    90.27695   178.77791     3.45631    89.72305   181.22209     3.45631
     4.90000    90.27696   178.77786     3.45630    89.72304   181.22214     3.45630
     5.00000    90.27698   178.77781     3.45629    89.72302   181.22219     3.45629
     5.10000    90.27699   178.77776     3.45628    89.72301   181.22224     3.45628
     5.20000    90.27700   178.77770     3.45627    89.72300   181.22230     3.45627
     5.30000    90.27701   178.77765     3.45626    89.72299   181.22235     3.45626
     5.40000    90.27702   178.77760     3.45625    89.72298   181.22240     3.45625
     5.50000    90.27704   178.77755     3.45624    89.72296   181.22245     3.45624
     5.60000    90.27705   178.77750     3.45623    89.72295   181.22250     3.45623
     5.70000    90.27706   178.77744     3.45622    89.72294   181.22256     3.45622
     5.80000    90.27707   178.77739     3.45621    89.72293   181.22261     3.45621
     5.90000    90.27709   178.77734     3.45620    89.72291   181.22266     3.45620
     6.00000    90.27710   178.77729     3.45618    89.72290   181.22271     3.45618
     6.10000    90.27711   178.77723     3.45617    89.72289   181.22277     3.45617
     6.20000    90.27712   178.77718     3.45616    89.72288   181.22282     3.45616
     6.30000    90.27714   178.77713     3.45615    89.72286   181.22287     3.45615
     6.40000    90.27715   178.77708     3.45614    89.72285   181.22292     3.45614
     6.50000    90.27716   178.77702     3.45613    89.72284   181.22298     3.45613
     6.60000    90.27717   178.77697     3.45612    89.72283   181.22303     3.45612
     6.70000    90.27719   178.77692     3.45611    89.72281   181.22308     3.45611
     6.80000    90.27720   178.77687     3.45610    89.72280   181.22313     3.45610
     6.90000    90.27721   178.77682     3.45609    89.72279   181.22318     3.45609
     7.00000    90.27722   178.77676     3.45608    89.72278   181.22324     3.45608
     7.10000    90.27724   178.77671     3.45607    89.72276   181.22329     3.45607
     7.20000    90.27725   178.77666     3.45606    89.72275   181.22334     3.45606
     7.30000    90.27726   178.77661     3.45605    89.72274   181.22339     3.45605
     7.40000    90.27727   178.77655     3.45604    89.72273   181.22345     3.45604
     7.50000    90.27729   178.77650     3.45603    89.72271   181.22350     3.45603
     7.60000    90.27730   178.77645     3.45602    89.72270   181.22355     3.45602
     7.70000    90.27731   178.77640     3.45601    89.72269   181.22360     3.45601
     7.80000    90.27732   178.77634     3.45600    89.72268   181.22366     3.45600
     7.90000    90.27734   178.77629     3.45599    89.72266   181.22371     3.45599
     8.00000    90.27735   178.77624     3.45598    89.72265   181.22376     3.45598
     8.10000    90.27736   178.77619     3.45597    89.72264   181.22381     3.45597
     8.20000    90.27737   178.77613     3.45596    89.72263   181.22387     3.45596
     8.30000    90.27739   178.77608     3.45595    89.72261   181.22392     3.45595
     8.40000    90.27740   178.77603     3.45593    89.72260   181.22397     3.45593
     8.50000    90.27741   178.77598     3.45592    89.72259   181.22402     3.45592
     8.60000    90.27742   178.77593     3.45591    89.72258   181.22407     3.45591
     8.70000    90.27744   178.77587     3.45590    89.72256   181.22413     3.45590
     8.80000    90.27745   178.77582     3.45589    89.72255   181.22418     3.45589
     8.90000    90.27746   178.77577     3.45588    89.72254   181.22423     3.45588
     9.00000    90.27747   178.77572     3.45587    89.72253   181.22428     3.45587
     9.10000    90.27749   178.77566     3.45586    89.72251   181.22434     3.45586
     9.20000    90.27750   178.77561     3.45585    89.72250   181.22439     3.45585
     9.30000    90.27751   178.77556     3.45584    89.72249   181.22444     3.45584
     9.40000    90.27752   178.77551     3.45583    89.72248   181.22449     3.45583
     9.50000    90.27754   178.77545     3.45582    89.72246   181.22455     3.45582
     9.60000    90.27755   178.77540     3.45581    89.72245   181.22460     3.45581
     9.70000    90.27756   178.77535     3.45579    89.72244   181.22465     3.45579
     9.80000    90.27757   178.77530     3.45578    89.72243   181.22470     3.45578
     9.90000    90.27759   178.77524     3.45577    89.72241   181.22476     3.45577
    10.00000    90.27760   178.77519     3.45576    89.72240   181.22481     3.45576
    10.10000    90.27761   178.77514     3.45575    89.72239   181.22486     3.45575
    10.20000    90.27762   178.77509     3.45574    89.72238   181.22491     3.45574
    10.30000    90.27764   178.77503     3.45573    89.72236   181.22497     3.45573
    10.40000    90.27765   178.77498     3.45572    89.72235   181.22502     3.45572
    10.50000    90.27766   178.77493     3.45571    89.72234   181.22507     3.45571
    10.60000    90.27767   178.77488     3.45570    89.72233   181.22512     3.45570
    10.70000    90.27769   178.77482     3.45568    89.72231   181.22518     3.45568
    10.80000    90.27770   178.77477     3.45567    89.72230   181.22523     3.45567
    10.90000    90.27771   178.77472     3.45566    89.72229   181.22528     3.45566
    11.00000    90.27772   178.77467     3.45565    89.72228   181.22533     3.45565
    11.10000    90.27774   178.77461     3.45564    89.72226   181.22539     3.45564
    11.20000    90.27775   178.77456     3.45563    89.72225   181.22544     3.45563
    11.30000    90.27776   178.77451     3.45562    89.72224   181.22549     3.45562
    11.40000    90.27777   178.77446     3.45561    89.72223   181.22554     3.45561
    11.50000    90.27779   178.77440     3.45559    89.72221   181.22560     3.45559
    11.60000    90.27780   178.77435     3.45558    89.72220   181.22565     3.45558
    11.70000    90.27781   178.77430     3.45557    89.72219   181.22570     3.45557
    11.80000    90.27782   178.77425     3.45556    89.72218   181.22575     3.45556
    11.90000    90.27784   178.77419     3.45555    89.72216   181.22581     3.45555
    12.00000    90.27785   178.77414     3.45554    89.72215   181.22586     3.45554
    12.10000    90.27786   178.77409     3.45553    89.72214   181.22591     3.45553
    12.20000    90.27787   178.77404     3.45552    89.72213   181.22596     3.45552
    12.30000    90.27789   178.77398     3.45550    89.72211   181.22602     3.45550
    12.40000    90.27790   178.77393     3.45549    89.72210   181.22607     3.45549
    12.50000    90.27791   178.77388     3.45548    89.72209   181.22612     3.45548
    12.60000    90.27792   178.77383     3.45547    89.72208   181.22617     3.45547
    12.70000    90.27794   178.77377     3.45546    89.72206   181.22623     3.45546
    12.80000    90.27795   178.77372     3.45545    89.72205   181.22628     3.45545
    12.90000    90.27796   178.77367     3.45543    89.72204   181.22633     3.45543
    13.00000    90.27797   178.77362     3.45542    89.72203   181.22638     3.45542
    13.10000    90.27799   178.77356     3.45541    89.72201   181.22644     3.45541
    13.20000    90.27800   178.77351     3.45540    89.72200   181.22649     3.45540
    13.30000    90.27801   178.77346     3.45539    89.72199   181.22654     3.45539
    13.40000    90.27802   178.77341     3.45538    89.72198   181.22659     3.45538
    13.50000    90.27804   178.77335     3.45537    89.72196   181.22665     3.45537
    13.60000    90.27805   178.77330     3.45535    89.72195   181.22670     3.45535
    13.70000    90.27806   178.77325     3.45534    89.72194   181.22675     3.45534
    13.80000    90.27807   178.77320     3.45533    89.72193   181.22680     3.45533
    13.90000    90.27809   178.77314     3.45532    89.72191   181.22686     3.45532
    14.00000    90.27810   178.77309     3.45531    89.72190   181.22691     3.45531
    14.10000    90.27811   178.77304     3.45529    89.72189   181.22696     3.45529
    14.20000    90.27812   178.77299     3.45528    89.72188   181.22701     3.45528
    14.30000    90.27814   178.77293     3.45527    89.72186   181.22707     3.45527
    14.40000    90.27815   178.77288     3.45526    89.72185   181.22712     3.45526
    14.50000    90.27816   178.77283     3.45525    89.72184   181.22717     3.45525
    14.60000    90.27817   178.77278     3.45524    89.72183   181.22722     3.45524
    14.70000    90.27819   178.77272     3.45522    89.72181   181.22728     3.45522
    14.80000    90.27820   178.77267     3.45521    89.72180   181.22733     3.45521
    14.90000    90.27821   178.77262     3.45520    89.72179   181.22738     3.45520
    15.00000    90.27822   178.77257     3.45519    89.72178   181.22743     3.45519
    15.10000    90.27824   178.77251     3.45518    89.72176   181.22749     3.45518
    15.20000    90.27825   178.77246     3.45516    89.72175   181.22754     3.45516
    15.30000    90.27826   178.77241     3.45515    89.72174   181.22759     3.45515
    15.40000    90.27827   178.77235     3.45514    89.72173   181.22765     3.45514
    15.50000    90.27829   178.77230     3.45513    89.72171   181.22770     3.45513
    15.60000    90.27830   178.77225     3.45511    89.72170   181.22775     3.45511
    15.70000    90.27831   178.77220     3.45510    89.72169   181.22780     3.45510
    15.80000    90.27832   178.77214     3.45509    89.72168   181.22786     3.45509
    15.90000    90.27834   178.77209     3.45508    89.72166   181.22791     3.45508
    16.00000    90.27835   178.77204     3.45507    89.72165   181.22796     3.45507
    16.10000    90.27836   178.77199     3.45505    89.72164   181.22801     3.45505
    16.20000    90.27837   178.77193     3.45504    89.72163   181.22807     3.45504
    16.30000    90.27839   178.77188     3.45503    89.72161   181.22812     3.45503
    16.40000    90.27840   178.77183     3.45502    89.72160   181.22817     3.45502
    16.50000    90.27841   178.77178     3.45501    89.72159   181.22822     3.45501
    16.60000    90.27842   178.77172     3.45499    89.72158   181.22828     3.45499
    16.70000    90.27844   178.77167     3.45498    89.72156   181.22833     3.45498
    16.80000    90.27845   178.77162     3.45497    89.72155   181.22838     3.45497
    16.90000    90.27846   178.77156     3.45496    89.72154   181.22844     3.45496
    17.00000    90.27847   178.77151     3.45494    89.72153   181.22849     3.45494
    17.10000    90.27849   178.77146     3.45493    89.72151   181.22854     3.45493
    17.20000    90.27850   178.77141     3.45492    89.72150   181.22859     3.45492
    17.30000    90.27851   178.77135     3.45491    89.72149   181.22865     3.45491
    17.40000    90.27852   178.77130     3.45489    89.72148   181.22870     3.45489
    17.50000    90.27854   178.77125     3.45488    89.72146   181.22875     3.45488
    17.60000    90.27855   178.77120     3.45487    89.72145   181.22880     3.45487
    17.70000    90.27856   178.77114     3.45486    89.72144   181.22886     3.45486
    17.80000    90.27857   178.77109     3.45484    89.72143   181.22891     3.45484
    17.90000    90.27859   178.77104     3.45483    89.72141   181.22896     3.45483
    18.00000    90.27860   178.77099     3.45482    89.72140   181.22901     3.45482
    18.10000    90.27861   178.77093     3.45481    89.72139   181.22907     3.45481
    18.20000    90.27862   178.77088     3.45479    89.72138   181.22912     3.45479
    18.30000    90.27864   178.77083     3.45478    89.72136   181.22917     3.45478
    18.40000    90.27865   178.77077     3.45477    89.72135   181.22923     3.45477
    18.50000    90.27866   178.77072     3.45475    89.72134   181.22928     3.45475
    18.60000    90.27868   178.77067     3.45474    89.72132   181.22933     3.45474
    18.70000    90.27869   178.77062     3.45473    89.72131   181.22938     3.45473
    18.80000    90.27870   178.77056     3.45472    89.72130   181.22944     3.45472
    18.90000    90.27871   178.77051     3.45470    89.72129   181.22949     3.45470
    19.00000    90.27873   178.77046     3.45469    89.72127   181.22954     3.45469
    19.10000    90.27874   178.77040     3.45468    89.72126   181.22960     3.45468
    19.20000    90.27875   178.77035     3.45467    89.72125   181.22965     3.45467
    19.30000    90.27876   178.77030     3.45465    89.72124   181.22970     3.45465
    19.40000    90.27878   178.77025     3.45464    89.72122   181.22975     3.45464
    19.50000    90.27879   178.77019     3.45463    89.72121   181.22981     3.45463
    19.60000    90.27880   178.77014     3.45461    89.72120   181.22986     3.45461
    19.70000    90.27881   178.77009     3.45460    89.72119   181.22991     3.45460
    19.80000    90.27883   178.77004     3.45459    89.72117   181.22996     3.45459
    19.90000    90.27884   178.76998     3.45457    89.72116   181.23002     3.45457
    20.00000    90.27885   178.76993     3.45456    89.72115   181.23007     3.45456
    20.10000    90.27886   178.76988     3.45455    89.72114   181.23012     3.45455
    20.20000    90.27888   178.76982     3.45454    89.72112   181.23018     3.45454
    20.30000    90.27889   178.76977     3.45452    89.72111   181.23023     3.45452
    20.40000    90.27890   178.76972     3.45451    89.72110   181.23028     3.45451
    20.50000    90.27891   178.76967     3.45450    89.72109   181.23033     3.45450
    20.60000    90.27893   178.76961     3.45448    89.72107   181.23039     3.45448
    20.70000    90.27894   178.76956     3.45447    89.72106   181.23044     3.45447
    20.80000    90.27895   178.76951     3.45446    89.72105   181.23049     3.45446
    20.90000    90.27896   178.76945     3.45444    89.72104   181.23055     3.45444
    21.00000    90.27898   178.76940     3.45443    89.72102   181.23060     3.45443
    21.10000    90.27899   178.76935     3.45442    89.72101   181.23065     3.45442
    21.20000    90.27900   178.76930     3.45440    89.72100   181.23070     3.45440
    21.30000    90.27901   178.76924     3.45439    89.72099   181.23076     3.45439
    21.40000    90.27903   178.76919     3.45438    89.72097   181.23081     3.45438
    21.50000    90.27904   178.76914     3.45436    89.72096   181.23086     3.45436
    21.60000    90.27905   178.76908     3.45435    89.72095   181.23092     3.45435
    21.70000    90.27906   178.76903     3.45434    89.72094   181.23097     3.45434
    21.80000    90.27908   178.76898     3.45432    89.72092   181.23102     3.45432
    21.90000    90.27909   178.76893     3.45431    89.72091   181.23107     3.45431
    22.00000    90.27910   178.76887     3.45430    89.72090   181.23113     3.45430
    22.10000    90.27911   178.76882     3.45428    89.72089   181.23118     3.45428
    22.20000    90.27913   178.76877     3.45427    89.72087   181.23123     3.45427
    22.30000    90.27914   178.76871     3.45426    89.72086   181.23129     3.45426
    22.40000    90.27915   178.76866     3.45424    89.72085   181.23134     3.45424
    22.50000    90.27917   178.76861     3.45423    89.72083   181.23139     3.45423
    22.60000    90.27918   178.76856     3.45422    89.72082   181.23144     3.45422
    22.70000    90.27919   178.76850     3.45420    89.72081   181.23150     3.45420
    22.80000    90.27920   178.76845     3.45419    89.72080   181.23155     3.45419
    22.90000    90.27922   178.76840     3.45418    89.72078   181.23160     3.45418
    23.00000    90.27923   178.76834     3.45416    89.72077   181.23166     3.45416
    23.10000    90.27924   178.76829     3.45415    89.72076   181.23171     3.45415
    23.20000    90.27925   178.76824     3.45413    89.72075   181.23176     3.45413
    23.30000    90.27927   178.76819     3.45412    89.72073   181.23181     3.45412
