 # applied field (T), theta (degree), phi (degree), abs [muB/unitcell], abs [T]
       0.00000000       0.00000000       0.00000000      41.17014854       1.37630987
       0.10000000       0.80024594     360.00000000      41.16997479       1.37630406
       0.20000000       1.65761510     360.00000000      41.16973711       1.37629611
       0.30000000       2.45788675     360.00000000      41.16946813       1.37628712
       0.40000000       3.31529274     360.00000000      41.16912911       1.37627579
       0.50000000       4.17272491     360.00000000      41.16873866       1.37626274
       0.60000000       4.97306803     360.00000000      41.16832981       1.37624907
       0.70000000       5.83056391     360.00000000      41.16784291       1.37623279
       0.80000000       6.68809929     360.00000000      41.16730771       1.37621490
       0.90000000       7.48855019     360.00000000      41.16676753       1.37619684
       1.00000000       8.34617369     360.00000000      41.16614306       1.37617596
       1.10000000       9.20384858     360.00000000      41.16547458       1.37615362
       1.20000000      10.06157857     360.00000000      41.16476382       1.37612986
       1.30000000      10.97651040     360.00000000      41.16395859       1.37610294
       1.40000000      11.83436525     360.00000000      41.16316625       1.37607645
       1.50000000      12.74943779     360.00000000      41.16227822       1.37604676
       1.60000000      13.60743074     360.00000000      41.16141325       1.37601785
       1.70000000      14.52265719     360.00000000      41.16045248       1.37598573
       1.80000000      15.49513606     360.00000000      41.15939174       1.37595027
       1.90000000      16.41053898     360.00000000      41.15836524       1.37591595
       2.00000000      17.32603128     360.00000000      41.15731173       1.37588074
       2.10000000      18.29880134     360.00000000      41.15616240       1.37584231
       2.20000000      19.32887056     360.00000000      41.15491620       1.37580065
       2.30000000      20.30186125     360.00000000      41.15372319       1.37576077
       2.40000000      21.33216850     360.00000000      41.15243948       1.37571786
       2.50000000      22.36260073     360.00000000      41.15114361       1.37567454
       2.60000000      23.45038087     360.00000000      41.14976345       1.37562840
       2.70000000      24.53830293     360.00000000      41.14838059       1.37558217
       2.80000000      25.68360507     360.00000000      41.14692361       1.37553346
       2.90000000      26.82906552     360.00000000      41.14547611       1.37548507
       3.00000000      28.08919316     360.00000000      41.14389266       1.37543214
       3.10000000      29.29224777     360.00000000      41.14241037       1.37538259
       3.20000000      30.61001894     360.00000000      41.14081292       1.37532918
       3.30000000      31.98527650     360.00000000      41.13918924       1.37527490
       3.40000000      33.41804474     360.00000000      41.13755401       1.37522024
       3.50000000      34.90834716     360.00000000      41.13592331       1.37516572
       3.60000000      36.51351832     360.00000000      41.13425192       1.37510985
       3.70000000      38.23360974     360.00000000      41.13256907       1.37505359
       3.80000000      40.12600526     360.00000000      41.13085274       1.37499622
       3.90000000      42.13343806     360.00000000      41.12919923       1.37494094
       4.00000000      44.42801813     360.00000000      41.12751193       1.37488453
       4.10000000      47.00987452     360.00000000      41.12587170       1.37482970
       4.20000000      50.10863613     360.00000000      41.12423166       1.37477487
       4.30000000      54.01145234     360.00000000      41.12260297       1.37472043
       4.40000000      59.69434930     360.00000000      41.12084519       1.37466167
       4.50000000      90.00000000     360.00000000      41.11140174       1.37434597
       4.60000000      90.00000000     360.00000000      41.11160400       1.37435273
       4.70000000      90.00000000     360.00000000      41.11180623       1.37435950
       4.80000000      90.00000000     360.00000000      41.11200843       1.37436625
       4.90000000      90.00000000     360.00000000      41.11221061       1.37437301
       5.00000000      90.00000000     360.00000000      41.11241275       1.37437977
       5.10000000      90.00000000     360.00000000      41.11261488       1.37438653
       5.20000000      90.00000000     360.00000000      41.11281697       1.37439328
       5.30000000      90.00000000     360.00000000      41.11301904       1.37440004
       5.40000000      90.00000000     360.00000000      41.11322108       1.37440679
       5.50000000      90.00000000     360.00000000      41.11342309       1.37441355
       5.60000000      90.00000000     360.00000000      41.11362508       1.37442030
       5.70000000      90.00000000     360.00000000      41.11382704       1.37442705
       5.80000000      90.00000000     360.00000000      41.11402897       1.37443380
       5.90000000      90.00000000     360.00000000      41.11423088       1.37444055
       6.00000000      90.00000000     360.00000000      41.11443276       1.37444730
       6.10000000      90.00000000     360.00000000      41.11463461       1.37445405
       6.20000000      90.00000000     360.00000000      41.11483644       1.37446079
       6.30000000      90.00000000     360.00000000      41.11503823       1.37446754
       6.40000000      90.00000000     360.00000000      41.11524001       1.37447429
       6.50000000      90.00000000     360.00000000      41.11544175       1.37448103
       6.60000000      90.00000000     360.00000000      41.11564347       1.37448777
       6.70000000      90.00000000     360.00000000      41.11584516       1.37449452
       6.80000000      90.00000000     360.00000000      41.11604682       1.37450126
       6.90000000      90.00000000     360.00000000      41.11624846       1.37450800
       7.00000000      90.00000000     360.00000000      41.11645007       1.37451474
       7.10000000      90.00000000     360.00000000      41.11665165       1.37452148
       7.20000000      90.00000000     360.00000000      41.11685321       1.37452821
       7.30000000      90.00000000     360.00000000      41.11705474       1.37453495
       7.40000000      90.00000000     360.00000000      41.11725624       1.37454169
       7.50000000      90.00000000     360.00000000      41.11745772       1.37454842
       7.60000000      90.00000000     360.00000000      41.11765917       1.37455516
       7.70000000      90.00000000     360.00000000      41.11786059       1.37456189
       7.80000000      90.00000000     360.00000000      41.11806198       1.37456862
       7.90000000      90.00000000     360.00000000      41.11826335       1.37457536
       8.00000000      90.00000000     360.00000000      41.11846469       1.37458209
       8.10000000      90.00000000     360.00000000      41.11866601       1.37458882
       8.20000000      90.00000000     360.00000000      41.11886730       1.37459555
       8.30000000      90.00000000     360.00000000      41.11906856       1.37460227
       8.40000000      90.00000000     360.00000000      41.11926980       1.37460900
       8.50000000      90.00000000     360.00000000      41.11947100       1.37461573
       8.60000000      90.00000000     360.00000000      41.11967219       1.37462245
       8.70000000      90.00000000     360.00000000      41.11987334       1.37462918
       8.80000000      90.00000000     360.00000000      41.12007447       1.37463590
       8.90000000      90.00000000     360.00000000      41.12027557       1.37464262
       9.00000000      90.00000000     360.00000000      41.12047665       1.37464935
       9.10000000      90.00000000     360.00000000      41.12067769       1.37465607
       9.20000000      90.00000000     360.00000000      41.12087872       1.37466279
       9.30000000      90.00000000     360.00000000      41.12107971       1.37466951
       9.40000000      90.00000000     360.00000000      41.12128068       1.37467622
       9.50000000      90.00000000     360.00000000      41.12148162       1.37468294
       9.60000000      90.00000000     360.00000000      41.12168254       1.37468966
       9.70000000      90.00000000     360.00000000      41.12188343       1.37469637
       9.80000000      90.00000000     360.00000000      41.12208429       1.37470309
       9.90000000      90.00000000     360.00000000      41.12228512       1.37470980
      10.00000000      90.00000000     360.00000000      41.12248593       1.37471652
      10.10000000      90.00000000     360.00000000      41.12268672       1.37472323
      10.20000000      90.00000000     360.00000000      41.12288747       1.37472994
      10.30000000      90.00000000     360.00000000      41.12308820       1.37473665
      10.40000000      90.00000000     360.00000000      41.12328890       1.37474336
      10.50000000      90.00000000     360.00000000      41.12348958       1.37475007
      10.60000000      90.00000000     360.00000000      41.12369023       1.37475678
      10.70000000      90.00000000     360.00000000      41.12389085       1.37476348
      10.80000000      90.00000000     360.00000000      41.12409145       1.37477019
      10.90000000      90.00000000     360.00000000      41.12429202       1.37477689
      11.00000000      90.00000000     360.00000000      41.12449257       1.37478360
      11.10000000      90.00000000     360.00000000      41.12469308       1.37479030
      11.20000000      90.00000000     360.00000000      41.12489357       1.37479700
      11.30000000      90.00000000     360.00000000      41.12509404       1.37480370
      11.40000000      90.00000000     360.00000000      41.12529448       1.37481040
      11.50000000      90.00000000     360.00000000      41.12549489       1.37481710
      11.60000000      90.00000000     360.00000000      41.12569527       1.37482380
      11.70000000      90.00000000     360.00000000      41.12589563       1.37483050
      11.80000000      90.00000000     360.00000000      41.12609597       1.37483720
      11.90000000      90.00000000     360.00000000      41.12629627       1.37484389
      12.00000000      90.00000000     360.00000000      41.12649655       1.37485059
      12.10000000      90.00000000     360.00000000      41.12669681       1.37485728
      12.20000000      90.00000000     360.00000000      41.12689703       1.37486398
      12.30000000      90.00000000     360.00000000      41.12709723       1.37487067
      12.40000000      90.00000000     360.00000000      41.12729741       1.37487736
      12.50000000      90.00000000     360.00000000      41.12749756       1.37488405
      12.60000000      90.00000000     360.00000000      41.12769768       1.37489074
      12.70000000      90.00000000     360.00000000      41.12789778       1.37489743
      12.80000000      90.00000000     360.00000000      41.12809785       1.37490412
      12.90000000      90.00000000     360.00000000      41.12829789       1.37491081
      13.00000000      90.00000000     360.00000000      41.12849791       1.37491749
      13.10000000      90.00000000     360.00000000      41.12869790       1.37492418
      13.20000000      90.00000000     360.00000000      41.12889786       1.37493087
      13.30000000      90.00000000     360.00000000      41.12909780       1.37493755
      13.40000000      90.00000000     360.00000000      41.12929771       1.37494423
      13.50000000      90.00000000     360.00000000      41.12949760       1.37495091
      13.60000000      90.00000000     360.00000000      41.12969746       1.37495760
      13.70000000      90.00000000     360.00000000      41.12989729       1.37496428
      13.80000000      90.00000000     360.00000000      41.13009710       1.37497096
      13.90000000      90.00000000     360.00000000      41.13029688       1.37497763
      14.00000000      90.00000000     360.00000000      41.13049663       1.37498431
      14.10000000      90.00000000     360.00000000      41.13069636       1.37499099
      14.20000000      90.00000000     360.00000000      41.13089607       1.37499766
      14.30000000      90.00000000     360.00000000      41.13109574       1.37500434
      14.40000000      90.00000000     360.00000000      41.13129539       1.37501101
      14.50000000      90.00000000     360.00000000      41.13149502       1.37501769
      14.60000000      90.00000000     360.00000000      41.13169462       1.37502436
      14.70000000      90.00000000     360.00000000      41.13189419       1.37503103
      14.80000000      90.00000000     360.00000000      41.13209373       1.37503770
      14.90000000      90.00000000     360.00000000      41.13229325       1.37504437
      15.00000000      90.00000000     360.00000000      41.13249275       1.37505104
      15.10000000      90.00000000     360.00000000      41.13269222       1.37505771
      15.20000000      90.00000000     360.00000000      41.13289166       1.37506438
      15.30000000      90.00000000     360.00000000      41.13309107       1.37507104
      15.40000000      90.00000000     360.00000000      41.13329046       1.37507771
      15.50000000      90.00000000     360.00000000      41.13348983       1.37508437
      15.60000000      90.00000000     360.00000000      41.13368916       1.37509104
      15.70000000      90.00000000     360.00000000      41.13388848       1.37509770
      15.80000000      90.00000000     360.00000000      41.13408776       1.37510436
      15.90000000      90.00000000     360.00000000      41.13428702       1.37511102
      16.00000000      90.00000000     360.00000000      41.13448626       1.37511768
      16.10000000      90.00000000     360.00000000      41.13468546       1.37512434
      16.20000000      90.00000000     360.00000000      41.13488465       1.37513100
      16.30000000      90.00000000     360.00000000      41.13508380       1.37513766
      16.40000000      90.00000000     360.00000000      41.13528293       1.37514432
      16.50000000      90.00000000     360.00000000      41.13548204       1.37515097
      16.60000000      90.00000000     360.00000000      41.13568111       1.37515763
      16.70000000      90.00000000     360.00000000      41.13588017       1.37516428
      16.80000000      90.00000000     360.00000000      41.13607919       1.37517094
      16.90000000      90.00000000     360.00000000      41.13627819       1.37517759
      17.00000000      90.00000000     360.00000000      41.13647717       1.37518424
      17.10000000      90.00000000     360.00000000      41.13667612       1.37519089
      17.20000000      90.00000000     360.00000000      41.13687504       1.37519754
      17.30000000      90.00000000     360.00000000      41.13707394       1.37520419
      17.40000000      90.00000000     360.00000000      41.13727281       1.37521084
      17.50000000      90.00000000     360.00000000      41.13747166       1.37521749
      17.60000000      90.00000000     360.00000000      41.13767048       1.37522413
      17.70000000      90.00000000     360.00000000      41.13786927       1.37523078
      17.80000000      90.00000000     360.00000000      41.13806804       1.37523742
      17.90000000      90.00000000     360.00000000      41.13826678       1.37524407
      18.00000000      90.00000000     360.00000000      41.13846550       1.37525071
      18.10000000      90.00000000     360.00000000      41.13866419       1.37525735
      18.20000000      90.00000000     360.00000000      41.13886285       1.37526399
      18.30000000      90.00000000     360.00000000      41.13906149       1.37527063
      18.40000000      90.00000000     360.00000000      41.13926011       1.37527727
      18.50000000      90.00000000     360.00000000      41.13945870       1.37528391
      18.60000000      90.00000000     360.00000000      41.13965726       1.37529055
      18.70000000      90.00000000     360.00000000      41.13985579       1.37529719
      18.80000000      90.00000000     360.00000000      41.14005431       1.37530382
      18.90000000      90.00000000     360.00000000      41.14025279       1.37531046
      19.00000000      90.00000000     360.00000000      41.14045125       1.37531709
      19.10000000      90.00000000     360.00000000      41.14064968       1.37532373
      19.20000000      90.00000000     360.00000000      41.14084809       1.37533036
      19.30000000      90.00000000     360.00000000      41.14104648       1.37533699
      19.40000000      90.00000000     360.00000000      41.14124483       1.37534362
      19.50000000      90.00000000     360.00000000      41.14144316       1.37535025
      19.60000000      90.00000000     360.00000000      41.14164147       1.37535688
      19.70000000      90.00000000     360.00000000      41.14183975       1.37536351
      19.80000000      90.00000000     360.00000000      41.14203800       1.37537014
      19.90000000      90.00000000     360.00000000      41.14223623       1.37537676
      20.00000000      90.00000000     360.00000000      41.14243444       1.37538339
      20.10000000      90.00000000     360.00000000      41.14263262       1.37539002
      20.20000000      90.00000000     360.00000000      41.14283077       1.37539664
      20.30000000      90.00000000     360.00000000      41.14302889       1.37540326
      20.40000000      90.00000000     360.00000000      41.14322700       1.37540989
      20.50000000      90.00000000     360.00000000      41.14342507       1.37541651
      20.60000000      90.00000000     360.00000000      41.14362312       1.37542313
      20.70000000      90.00000000     360.00000000      41.14382115       1.37542975
      20.80000000      90.00000000     360.00000000      41.14401915       1.37543637
      20.90000000      90.00000000     360.00000000      41.14421712       1.37544298
      21.00000000      90.00000000     360.00000000      41.14441507       1.37544960
      21.10000000      90.00000000     360.00000000      41.14461299       1.37545622
      21.20000000      90.00000000     360.00000000      41.14481089       1.37546283
      21.30000000      90.00000000     360.00000000      41.14500876       1.37546945
      21.40000000      90.00000000     360.00000000      41.14520661       1.37547606
      21.50000000      90.00000000     360.00000000      41.14540443       1.37548268
      21.60000000      90.00000000     360.00000000      41.14560223       1.37548929
      21.70000000      90.00000000     360.00000000      41.14580000       1.37549590
      21.80000000      90.00000000     360.00000000      41.14599774       1.37550251
      21.90000000      90.00000000     360.00000000      41.14619546       1.37550912
      22.00000000      90.00000000     360.00000000      41.14639316       1.37551573
      22.10000000      90.00000000     360.00000000      41.14659082       1.37552234
      22.20000000      90.00000000     360.00000000      41.14678847       1.37552894
      22.30000000      90.00000000     360.00000000      41.14698609       1.37553555
      22.40000000      90.00000000     360.00000000      41.14718368       1.37554216
      22.50000000      90.00000000     360.00000000      41.14738125       1.37554876
      22.60000000      90.00000000     360.00000000      41.14757879       1.37555536
      22.70000000      90.00000000     360.00000000      41.14777631       1.37556197
      22.80000000      90.00000000     360.00000000      41.14797380       1.37556857
      22.90000000      90.00000000     360.00000000      41.14817126       1.37557517
      23.00000000      90.00000000     360.00000000      41.14836870       1.37558177
