 # applied field (T), theta (degree), phi (degree), abs for RE 1-2
     0.00000     0.19158   315.00000     3.46358     0.19158   225.00000     3.46358
     0.10000     1.33097   352.72151     3.46347     1.05296   354.31409     3.46616
     0.20000     2.51351   355.38873     3.46321     2.23308   358.11817     3.46858
     0.30000     3.69859   356.34424     3.46280     3.41733   359.28832     3.47083
     0.40000     4.88497   356.83273     3.46225     4.60358   359.85533     3.47288
     0.50000     6.07254   357.12767     3.46156     5.79157     0.18972     3.47473
     0.60000     7.26139   357.32387     3.46073     6.98136     0.41033     3.47637
     0.70000     8.50565   357.46826     3.45973     8.22711     0.57300     3.47783
     0.80000     9.69755   357.56997     3.45865     9.42089     0.68873     3.47900
     0.90000    10.94534   357.65099     3.45738    10.67104     0.78255     3.47995
     1.00000    12.19519   357.71395     3.45599    11.92362     0.85727     3.48062
     1.10000    13.44727   357.76389     3.45448    13.17873     0.91840     3.48100
     1.20000    14.75620   357.80568     3.45278    14.49107     0.97157     3.48108
     1.30000    16.06789   357.83949     3.45097    15.80636     1.01658     3.48083
     1.40000    17.38248   357.86715     3.44905    17.12467     1.05535     3.48024
     1.50000    18.75496   357.89082     3.44695    18.50109     1.09053     3.47925
     1.60000    20.18586   357.91106     3.44466    19.93611     1.12267     3.47781
     1.70000    21.62059   357.92774     3.44229    21.37494     1.15117     3.47596
     1.80000    23.05927   357.94156     3.43983    22.81767     1.17669     3.47370
     1.90000    24.61288   357.95389     3.43711    24.37562     1.20145     3.47079
     2.00000    26.17124   357.96408     3.43432    25.93830     1.22385     3.46741
     2.10000    27.79018   357.97284     3.43139    27.56180     1.24498     3.46341
     2.20000    29.47027   357.98037     3.42830    29.24682     1.26495     3.45876
     2.30000    31.26822   357.98706     3.42499    31.05048     1.28449     3.45326
     2.40000    33.07235   357.99270     3.42167    32.86105     1.30248     3.44724
     2.50000    35.05232   357.99796     3.41804    34.84929     1.32071     3.44012
     2.60000    37.15298   358.00281     3.41423    36.96059     1.33864     3.43205
     2.70000    39.31831   358.00733     3.41038    39.13946     1.35594     3.42331
     2.80000    41.72027   358.01206     3.40622    41.56022     1.37415     3.41326
     2.90000    44.36098   358.01724     3.40180    44.22695     1.39345     3.40201
     3.00000    47.24242   358.02321     3.39719    47.14391     1.41424     3.38984
     3.10000    50.48218   358.03065     3.39229    50.43283     1.43798     3.37669
     3.20000    54.25760   358.04073     3.38697    54.27711     1.46693     3.36274
     3.30000    58.80692   358.05533     3.38112    58.92243     1.50443     3.34876
     3.40000    64.78291   358.07920     3.37433    65.03364     1.55784     3.33637
     3.50000    73.97379   358.12699     3.36566    74.41046     1.64272     3.33184
     3.60000    89.71598   358.23717     3.35575    90.28402     1.76283     3.35575
     3.70000    89.71599   358.23724     3.35587    90.28401     1.76276     3.35587
     3.80000    89.71600   358.23730     3.35598    90.28400     1.76270     3.35598
     3.90000    89.71600   358.23737     3.35610    90.28400     1.76263     3.35610
     4.00000    89.71601   358.23744     3.35621    90.28399     1.76256     3.35621
     4.10000    89.71601   358.23750     3.35633    90.28399     1.76250     3.35633
     4.20000    89.71602   358.23757     3.35644    90.28398     1.76243     3.35644
     4.30000    89.71602   358.23763     3.35656    90.28398     1.76237     3.35656
     4.40000    89.71603   358.23770     3.35667    90.28397     1.76230     3.35667
     4.50000    89.71604   358.23777     3.35679    90.28396     1.76223     3.35679
     4.60000    89.71604   358.23783     3.35690    90.28396     1.76217     3.35690
     4.70000    89.71605   358.23790     3.35702    90.28395     1.76210     3.35702
     4.80000    89.71605   358.23797     3.35713    90.28395     1.76203     3.35713
     4.90000    89.71606   358.23803     3.35725    90.28394     1.76197     3.35725
     5.00000    89.71607   358.23810     3.35736    90.28393     1.76190     3.35736
     5.10000    89.71607   358.23816     3.35748    90.28393     1.76184     3.35748
     5.20000    89.71608   358.23823     3.35759    90.28392     1.76177     3.35759
     5.30000    89.71608   358.23830     3.35771    90.28392     1.76170     3.35771
     5.40000    89.71609   358.23836     3.35782    90.28391     1.76164     3.35782
     5.50000    89.71610   358.23843     3.35794    90.28390     1.76157     3.35794
     5.60000    89.71610   358.23849     3.35805    90.28390     1.76151     3.35805
     5.70000    89.71611   358.23856     3.35817    90.28389     1.76144     3.35817
     5.80000    89.71611   358.23863     3.35828    90.28389     1.76137     3.35828
     5.90000    89.71612   358.23869     3.35840    90.28388     1.76131     3.35840
     6.00000    89.71612   358.23876     3.35851    90.28388     1.76124     3.35851
     6.10000    89.71613   358.23882     3.35863    90.28387     1.76118     3.35863
     6.20000    89.71614   358.23889     3.35874    90.28386     1.76111     3.35874
     6.30000    89.71614   358.23896     3.35886    90.28386     1.76104     3.35886
     6.40000    89.71615   358.23902     3.35897    90.28385     1.76098     3.35897
     6.50000    89.71615   358.23909     3.35909    90.28385     1.76091     3.35909
     6.60000    89.71616   358.23915     3.35920    90.28384     1.76085     3.35920
     6.70000    89.71617   358.23922     3.35931    90.28383     1.76078     3.35931
     6.80000    89.71617   358.23928     3.35943    90.28383     1.76072     3.35943
     6.90000    89.71618   358.23935     3.35954    90.28382     1.76065     3.35954
     7.00000    89.71618   358.23942     3.35966    90.28382     1.76058     3.35966
     7.10000    89.71619   358.23948     3.35977    90.28381     1.76052     3.35977
     7.20000    89.71620   358.23955     3.35989    90.28380     1.76045     3.35989
     7.30000    89.71620   358.23961     3.36000    90.28380     1.76039     3.36000
     7.40000    89.71621   358.23968     3.36012    90.28379     1.76032     3.36012
     7.50000    89.71621   358.23975     3.36023    90.28379     1.76025     3.36023
     7.60000    89.71622   358.23981     3.36034    90.28378     1.76019     3.36034
     7.70000    89.71623   358.23988     3.36046    90.28377     1.76012     3.36046
     7.80000    89.71623   358.23994     3.36057    90.28377     1.76006     3.36057
     7.90000    89.71624   358.24001     3.36069    90.28376     1.75999     3.36069
     8.00000    89.71624   358.24007     3.36080    90.28376     1.75993     3.36080
     8.10000    89.71625   358.24014     3.36092    90.28375     1.75986     3.36092
     8.20000    89.71625   358.24021     3.36103    90.28375     1.75979     3.36103
     8.30000    89.71626   358.24027     3.36114    90.28374     1.75973     3.36114
     8.40000    89.71627   358.24034     3.36126    90.28373     1.75966     3.36126
     8.50000    89.71627   358.24040     3.36137    90.28373     1.75960     3.36137
     8.60000    89.71628   358.24047     3.36149    90.28372     1.75953     3.36149
     8.70000    89.71628   358.24053     3.36160    90.28372     1.75947     3.36160
     8.80000    89.71629   358.24060     3.36171    90.28371     1.75940     3.36171
     8.90000    89.71630   358.24067     3.36183    90.28370     1.75933     3.36183
     9.00000    89.71630   358.24073     3.36194    90.28370     1.75927     3.36194
     9.10000    89.71631   358.24080     3.36205    90.28369     1.75920     3.36205
     9.20000    89.71631   358.24086     3.36217    90.28369     1.75914     3.36217
     9.30000    89.71632   358.24093     3.36228    90.28368     1.75907     3.36228
     9.40000    89.71633   358.24099     3.36240    90.28367     1.75901     3.36240
     9.50000    89.71633   358.24106     3.36251    90.28367     1.75894     3.36251
     9.60000    89.71634   358.24112     3.36262    90.28366     1.75888     3.36262
     9.70000    89.71634   358.24119     3.36274    90.28366     1.75881     3.36274
     9.80000    89.71635   358.24126     3.36285    90.28365     1.75874     3.36285
     9.90000    89.71635   358.24132     3.36296    90.28365     1.75868     3.36296
    10.00000    89.71636   358.24139     3.36308    90.28364     1.75861     3.36308
    10.10000    89.71637   358.24145     3.36319    90.28363     1.75855     3.36319
    10.20000    89.71637   358.24152     3.36330    90.28363     1.75848     3.36330
    10.30000    89.71638   358.24158     3.36342    90.28362     1.75842     3.36342
    10.40000    89.71638   358.24165     3.36353    90.28362     1.75835     3.36353
    10.50000    89.71639   358.24171     3.36364    90.28361     1.75829     3.36364
    10.60000    89.71640   358.24178     3.36376    90.28360     1.75822     3.36376
    10.70000    89.71640   358.24184     3.36387    90.28360     1.75816     3.36387
    10.80000    89.71641   358.24191     3.36398    90.28359     1.75809     3.36398
    10.90000    89.71641   358.24198     3.36410    90.28359     1.75802     3.36410
    11.00000    89.71642   358.24204     3.36421    90.28358     1.75796     3.36421
    11.10000    89.71643   358.24211     3.36432    90.28357     1.75789     3.36432
    11.20000    89.71643   358.24217     3.36444    90.28357     1.75783     3.36444
    11.30000    89.71644   358.24224     3.36455    90.28356     1.75776     3.36455
    11.40000    89.71644   358.24230     3.36466    90.28356     1.75770     3.36466
    11.50000    89.71645   358.24237     3.36478    90.28355     1.75763     3.36478
    11.60000    89.71645   358.24243     3.36489    90.28355     1.75757     3.36489
    11.70000    89.71646   358.24250     3.36500    90.28354     1.75750     3.36500
    11.80000    89.71647   358.24256     3.36512    90.28353     1.75744     3.36512
    11.90000    89.71647   358.24263     3.36523    90.28353     1.75737     3.36523
    12.00000    89.71648   358.24269     3.36534    90.28352     1.75731     3.36534
    12.10000    89.71648   358.24276     3.36545    90.28352     1.75724     3.36545
    12.20000    89.71649   358.24282     3.36557    90.28351     1.75718     3.36557
    12.30000    89.71650   358.24289     3.36568    90.28350     1.75711     3.36568
    12.40000    89.71650   358.24295     3.36579    90.28350     1.75705     3.36579
    12.50000    89.71651   358.24302     3.36590    90.28349     1.75698     3.36590
    12.60000    89.71651   358.24309     3.36602    90.28349     1.75691     3.36602
    12.70000    89.71652   358.24315     3.36613    90.28348     1.75685     3.36613
    12.80000    89.71653   358.24322     3.36624    90.28347     1.75678     3.36624
    12.90000    89.71653   358.24328     3.36636    90.28347     1.75672     3.36636
    13.00000    89.71654   358.24335     3.36647    90.28346     1.75665     3.36647
    13.10000    89.71654   358.24341     3.36658    90.28346     1.75659     3.36658
    13.20000    89.71655   358.24348     3.36669    90.28345     1.75652     3.36669
    13.30000    89.71655   358.24354     3.36681    90.28345     1.75646     3.36681
    13.40000    89.71656   358.24361     3.36692    90.28344     1.75639     3.36692
    13.50000    89.71657   358.24367     3.36703    90.28343     1.75633     3.36703
    13.60000    89.71657   358.24374     3.36714    90.28343     1.75626     3.36714
    13.70000    89.71658   358.24380     3.36726    90.28342     1.75620     3.36726
    13.80000    89.71658   358.24387     3.36737    90.28342     1.75613     3.36737
    13.90000    89.71659   358.24393     3.36748    90.28341     1.75607     3.36748
    14.00000    89.71660   358.24400     3.36759    90.28340     1.75600     3.36759
    14.10000    89.71660   358.24406     3.36770    90.28340     1.75594     3.36770
    14.20000    89.71661   358.24413     3.36782    90.28339     1.75587     3.36782
    14.30000    89.71661   358.24419     3.36793    90.28339     1.75581     3.36793
    14.40000    89.71662   358.24426     3.36804    90.28338     1.75574     3.36804
    14.50000    89.71663   358.24432     3.36815    90.28337     1.75568     3.36815
    14.60000    89.71663   358.24439     3.36827    90.28337     1.75561     3.36827
    14.70000    89.71664   358.24445     3.36838    90.28336     1.75555     3.36838
    14.80000    89.71664   358.24452     3.36849    90.28336     1.75548     3.36849
    14.90000    89.71665   358.24458     3.36860    90.28335     1.75542     3.36860
    15.00000    89.71665   358.24465     3.36871    90.28335     1.75535     3.36871
    15.10000    89.71666   358.24471     3.36883    90.28334     1.75529     3.36883
    15.20000    89.71667   358.24478     3.36894    90.28333     1.75522     3.36894
    15.30000    89.71667   358.24484     3.36905    90.28333     1.75516     3.36905
    15.40000    89.71668   358.24491     3.36916    90.28332     1.75509     3.36916
    15.50000    89.71668   358.24497     3.36927    90.28332     1.75503     3.36927
    15.60000    89.71669   358.24504     3.36938    90.28331     1.75496     3.36938
    15.70000    89.71670   358.24510     3.36950    90.28330     1.75490     3.36950
    15.80000    89.71670   358.24517     3.36961    90.28330     1.75483     3.36961
    15.90000    89.71671   358.24523     3.36972    90.28329     1.75477     3.36972
    16.00000    89.71671   358.24530     3.36983    90.28329     1.75470     3.36983
    16.10000    89.71672   358.24536     3.36994    90.28328     1.75464     3.36994
    16.20000    89.71673   358.24543     3.37005    90.28327     1.75457     3.37005
    16.30000    89.71673   358.24549     3.37017    90.28327     1.75451     3.37017
    16.40000    89.71674   358.24555     3.37028    90.28326     1.75445     3.37028
    16.50000    89.71674   358.24562     3.37039    90.28326     1.75438     3.37039
    16.60000    89.71675   358.24568     3.37050    90.28325     1.75432     3.37050
    16.70000    89.71675   358.24575     3.37061    90.28325     1.75425     3.37061
    16.80000    89.71676   358.24581     3.37072    90.28324     1.75419     3.37072
    16.90000    89.71677   358.24588     3.37084    90.28323     1.75412     3.37084
    17.00000    89.71677   358.24594     3.37095    90.28323     1.75406     3.37095
    17.10000    89.71678   358.24601     3.37106    90.28322     1.75399     3.37106
    17.20000    89.71678   358.24607     3.37117    90.28322     1.75393     3.37117
    17.30000    89.71679   358.24614     3.37128    90.28321     1.75386     3.37128
    17.40000    89.71680   358.24620     3.37139    90.28320     1.75380     3.37139
    17.50000    89.71680   358.24627     3.37150    90.28320     1.75373     3.37150
    17.60000    89.71681   358.24633     3.37161    90.28319     1.75367     3.37161
    17.70000    89.71681   358.24640     3.37173    90.28319     1.75360     3.37173
    17.80000    89.71682   358.24646     3.37184    90.28318     1.75354     3.37184
    17.90000    89.71683   358.24653     3.37195    90.28317     1.75347     3.37195
    18.00000    89.71683   358.24659     3.37206    90.28317     1.75341     3.37206
    18.10000    89.71684   358.24665     3.37217    90.28316     1.75335     3.37217
    18.20000    89.71684   358.24672     3.37228    90.28316     1.75328     3.37228
    18.30000    89.71685   358.24678     3.37239    90.28315     1.75322     3.37239
    18.40000    89.71685   358.24685     3.37250    90.28315     1.75315     3.37250
    18.50000    89.71686   358.24691     3.37261    90.28314     1.75309     3.37261
    18.60000    89.71687   358.24698     3.37272    90.28313     1.75302     3.37272
    18.70000    89.71687   358.24704     3.37283    90.28313     1.75296     3.37283
    18.80000    89.71688   358.24711     3.37295    90.28312     1.75289     3.37295
    18.90000    89.71688   358.24717     3.37306    90.28312     1.75283     3.37306
    19.00000    89.71689   358.24724     3.37317    90.28311     1.75276     3.37317
    19.10000    89.71690   358.24730     3.37328    90.28310     1.75270     3.37328
    19.20000    89.71690   358.24736     3.37339    90.28310     1.75264     3.37339
    19.30000    89.71691   358.24743     3.37350    90.28309     1.75257     3.37350
    19.40000    89.71691   358.24749     3.37361    90.28309     1.75251     3.37361
    19.50000    89.71692   358.24756     3.37372    90.28308     1.75244     3.37372
    19.60000    89.71692   358.24762     3.37383    90.28308     1.75238     3.37383
    19.70000    89.71693   358.24769     3.37394    90.28307     1.75231     3.37394
    19.80000    89.71694   358.24775     3.37405    90.28306     1.75225     3.37405
    19.90000    89.71694   358.24782     3.37416    90.28306     1.75218     3.37416
    20.00000    89.71695   358.24788     3.37427    90.28305     1.75212     3.37427
    20.10000    89.71695   358.24794     3.37438    90.28305     1.75206     3.37438
    20.20000    89.71696   358.24801     3.37449    90.28304     1.75199     3.37449
    20.30000    89.71697   358.24807     3.37460    90.28303     1.75193     3.37460
    20.40000    89.71697   358.24814     3.37471    90.28303     1.75186     3.37471
    20.50000    89.71698   358.24820     3.37482    90.28302     1.75180     3.37482
    20.60000    89.71698   358.24827     3.37494    90.28302     1.75173     3.37494
    20.70000    89.71699   358.24833     3.37505    90.28301     1.75167     3.37505
    20.80000    89.71700   358.24839     3.37516    90.28300     1.75161     3.37516
    20.90000    89.71700   358.24846     3.37527    90.28300     1.75154     3.37527
    21.00000    89.71701   358.24852     3.37538    90.28299     1.75148     3.37538
    21.10000    89.71701   358.24859     3.37549    90.28299     1.75141     3.37549
    21.20000    89.71702   358.24865     3.37560    90.28298     1.75135     3.37560
    21.30000    89.71702   358.24872     3.37571    90.28298     1.75128     3.37571
    21.40000    89.71703   358.24878     3.37582    90.28297     1.75122     3.37582
    21.50000    89.71704   358.24884     3.37593    90.28296     1.75116     3.37593
    21.60000    89.71704   358.24891     3.37604    90.28296     1.75109     3.37604
    21.70000    89.71705   358.24897     3.37615    90.28295     1.75103     3.37615
    21.80000    89.71705   358.24904     3.37626    90.28295     1.75096     3.37626
    21.90000    89.71706   358.24910     3.37637    90.28294     1.75090     3.37637
    22.00000    89.71707   358.24916     3.37648    90.28293     1.75084     3.37648
    22.10000    89.71707   358.24923     3.37659    90.28293     1.75077     3.37659
    22.20000    89.71708   358.24929     3.37670    90.28292     1.75071     3.37670
    22.30000    89.71708   358.24936     3.37681    90.28292     1.75064     3.37681
    22.40000    89.71709   358.24942     3.37691    90.28291     1.75058     3.37691
    22.50000    89.71710   358.24949     3.37702    90.28290     1.75051     3.37702
    22.60000    89.71710   358.24955     3.37713    90.28290     1.75045     3.37713
    22.70000    89.71711   358.24961     3.37724    90.28289     1.75039     3.37724
    22.80000    89.71711   358.24968     3.37735    90.28289     1.75032     3.37735
    22.90000    89.71712   358.24974     3.37746    90.28288     1.75026     3.37746
    23.00000    89.71712   358.24981     3.37757    90.28288     1.75019     3.37757
    23.10000    89.71713   358.24987     3.37768    90.28287     1.75013     3.37768
    23.20000    89.71714   358.24993     3.37779    90.28286     1.75007     3.37779
    23.30000    89.71714   358.25000     3.37790    90.28286     1.75000     3.37790
