 # applied field (T), theta (degree), phi (degree), abs for RE 3-4
     0.00000   179.00479   135.00000     0.10072   179.00479    45.00000     0.10072
     0.10000   177.81111   197.60643     0.10081   179.49651   225.00000     0.10078
     0.20000   175.98817   210.28184     0.10093   178.00637   225.00000     0.10088
     0.30000   174.10129   214.92867     0.10108   176.52643   225.00000     0.10100
     0.40000   172.20561   217.30408     0.10127   175.05817   225.00000     0.10114
     0.50000   170.31494   218.74092     0.10149   173.60294   225.00000     0.10132
     0.60000   168.43507   219.70246     0.10173   172.16191   225.00000     0.10151
     0.70000   166.47916   220.41960     0.10201   170.66592   225.00000     0.10174
     0.80000   164.63043   220.93053     0.10230   169.25685   225.00000     0.10198
     0.90000   162.71120   221.34697     0.10261   167.79595   225.00000     0.10224
     1.00000   160.81285   221.67866     0.10294   166.35386   225.00000     0.10252
     1.10000   158.84996   221.96112     0.10328   164.86417   225.00000     0.10282
     1.20000   156.99673   222.18546     0.10361   163.46133   225.00000     0.10311
     1.30000   154.99790   222.39257     0.10397   161.94780   225.00000     0.10344
     1.40000   153.10914   222.56214     0.10429   160.52065   225.00000     0.10375
     1.50000   151.16330   222.71598     0.10461   159.05048   225.00000     0.10408
     1.60000   149.16352   222.85639     0.10492   157.53916   225.00000     0.10441
     1.70000   147.19230   222.98053     0.10518   156.04952   225.00000     0.10473
     1.80000   145.17082   223.09585     0.10541   154.51971   225.00000     0.10506
     1.90000   143.10206   223.20350     0.10558   152.95049   225.00000     0.10537
     2.00000   140.98908   223.30444     0.10569   151.34205   225.00000     0.10567
     2.10000   138.83516   223.39951     0.10572   149.69399   225.00000     0.10596
     2.20000   136.64392   223.48938     0.10565   148.00519   225.00000     0.10622
     2.30000   134.34775   223.57727     0.10546   146.21673   225.00000     0.10645
     2.40000   132.02621   223.66052     0.10514   144.38378   225.00000     0.10665
     2.50000   129.61675   223.74179     0.10465   142.44603   225.00000     0.10680
     2.60000   127.06527   223.82289     0.10397   140.34263   225.00000     0.10691
     2.70000   124.45751   223.90120     0.10308   138.12338   225.00000     0.10695
     2.80000   121.62560   223.98172     0.10190   135.60910   225.00000     0.10692
     2.90000   118.67511   224.06137     0.10044   132.84130   225.00000     0.10681
     3.00000   115.48520   224.14363     0.09860   129.62567   225.00000     0.10660
     3.10000   112.04085   224.22958     0.09635   125.80874   225.00000     0.10628
     3.20000   108.19289   224.32523     0.09362   120.97199   225.00000     0.10585
     3.30000   103.69730   224.44474     0.09041   114.26819   225.00000     0.10542
     3.40000    97.46564   224.65447     0.08723   102.52644   225.00000     0.10558
     3.50000    90.00000   225.00000     0.08908    86.30832   225.00000     0.10844
     3.60000    90.00000   225.00000     0.08897    86.30470   225.00000     0.10832
     3.70000    90.00000   225.00000     0.08885    86.30108   225.00000     0.10820
     3.80000    90.00000   225.00000     0.08874    86.29745   225.00000     0.10808
     3.90000    90.00000   225.00000     0.08863    86.29381   225.00000     0.10796
     4.00000    90.00000   225.00000     0.08852    86.29016   225.00000     0.10784
     4.10000    90.00000   225.00000     0.08840    86.28651   225.00000     0.10772
     4.20000    90.00000   225.00000     0.08829    86.28285   225.00000     0.10760
     4.30000    90.00000   225.00000     0.08818    86.27918   225.00000     0.10748
     4.40000    90.00000   225.00000     0.08807    86.27550   225.00000     0.10735
     4.50000    90.00000   225.00000     0.08795    86.27182   225.00000     0.10723
     4.60000    90.00000   225.00000     0.08784    86.26813   225.00000     0.10711
     4.70000    90.00000   225.00000     0.08773    86.26443   225.00000     0.10699
     4.80000    90.00000   225.00000     0.08762    86.26072   225.00000     0.10687
     4.90000    90.00000   225.00000     0.08750    86.25700   225.00000     0.10675
     5.00000    90.00000   225.00000     0.08739    86.25328   225.00000     0.10663
     5.10000    90.00000   225.00000     0.08728    86.24955   225.00000     0.10651
     5.20000    90.00000   225.00000     0.08717    86.24581   225.00000     0.10639
     5.30000    90.00000   225.00000     0.08705    86.24206   225.00000     0.10627
     5.40000    90.00000   225.00000     0.08694    86.23831   225.00000     0.10615
     5.50000    90.00000   225.00000     0.08683    86.23455   225.00000     0.10603
     5.60000    90.00000   225.00000     0.08672    86.23078   225.00000     0.10591
     5.70000    90.00000   225.00000     0.08660    86.22700   225.00000     0.10579
     5.80000    90.00000   225.00000     0.08649    86.22321   225.00000     0.10567
     5.90000    90.00000   225.00000     0.08638    86.21942   225.00000     0.10555
     6.00000    90.00000   225.00000     0.08627    86.21562   225.00000     0.10543
     6.10000    90.00000   225.00000     0.08616    86.21181   225.00000     0.10531
     6.20000    90.00000   225.00000     0.08604    86.20799   225.00000     0.10519
     6.30000    90.00000   225.00000     0.08593    86.20416   225.00000     0.10507
     6.40000    90.00000   225.00000     0.08582    86.20033   225.00000     0.10495
     6.50000    90.00000   225.00000     0.08571    86.19648   225.00000     0.10483
     6.60000    90.00000   225.00000     0.08559    86.19263   225.00000     0.10471
     6.70000    90.00000   225.00000     0.08548    86.18877   225.00000     0.10459
     6.80000    90.00000   225.00000     0.08537    86.18490   225.00000     0.10447
     6.90000    90.00000   225.00000     0.08526    86.18103   225.00000     0.10435
     7.00000    90.00000   225.00000     0.08514    86.17714   225.00000     0.10423
     7.10000    90.00000   225.00000     0.08503    86.17325   225.00000     0.10411
     7.20000    90.00000   225.00000     0.08492    86.16935   225.00000     0.10399
     7.30000    90.00000   225.00000     0.08481    86.16544   225.00000     0.10387
     7.40000    90.00000   225.00000     0.08470    86.16152   225.00000     0.10375
     7.50000    90.00000   225.00000     0.08458    86.15760   225.00000     0.10363
     7.60000    90.00000   225.00000     0.08447    86.15366   225.00000     0.10351
     7.70000    90.00000   225.00000     0.08436    86.14972   225.00000     0.10339
     7.80000    90.00000   225.00000     0.08425    86.14576   225.00000     0.10327
     7.90000    90.00000   225.00000     0.08413    86.14180   225.00000     0.10315
     8.00000    90.00000   225.00000     0.08402    86.13783   225.00000     0.10303
     8.10000    90.00000   225.00000     0.08391    86.13386   225.00000     0.10291
     8.20000    90.00000   225.00000     0.08380    86.12987   225.00000     0.10279
     8.30000    90.00000   225.00000     0.08368    86.12588   225.00000     0.10267
     8.40000    90.00000   225.00000     0.08357    86.12187   225.00000     0.10255
     8.50000    90.00000   225.00000     0.08346    86.11786   225.00000     0.10243
     8.60000    90.00000   225.00000     0.08335    86.11384   225.00000     0.10231
     8.70000    90.00000   225.00000     0.08323    86.10981   225.00000     0.10219
     8.80000    90.00000   225.00000     0.08312    86.10577   225.00000     0.10207
     8.90000    90.00000   225.00000     0.08301    86.10172   225.00000     0.10195
     9.00000    90.00000   225.00000     0.08290    86.09766   225.00000     0.10183
     9.10000    90.00000   225.00000     0.08278    86.09360   225.00000     0.10171
     9.20000    90.00000   225.00000     0.08267    86.08952   225.00000     0.10159
     9.30000    90.00000   225.00000     0.08256    86.08544   225.00000     0.10147
     9.40000    90.00000   225.00000     0.08245    86.08134   225.00000     0.10135
     9.50000    90.00000   225.00000     0.08234    86.07724   225.00000     0.10123
     9.60000    90.00000   225.00000     0.08222    86.07313   225.00000     0.10111
     9.70000    90.00000   225.00000     0.08211    86.06901   225.00000     0.10099
     9.80000    90.00000   225.00000     0.08200    86.06488   225.00000     0.10087
     9.90000    90.00000   225.00000     0.08189    86.06074   225.00000     0.10075
    10.00000    90.00000   225.00000     0.08177    86.05660   225.00000     0.10063
    10.10000    90.00000   225.00000     0.08166    86.05244   225.00000     0.10051
    10.20000    90.00000   225.00000     0.08155    86.04827   225.00000     0.10039
    10.30000    90.00000   225.00000     0.08144    86.04410   225.00000     0.10027
    10.40000    90.00000   225.00000     0.08133    86.03991   225.00000     0.10015
    10.50000    90.00000   225.00000     0.08121    86.03572   225.00000     0.10003
    10.60000    90.00000   225.00000     0.08110    86.03151   225.00000     0.09991
    10.70000    90.00000   225.00000     0.08099    86.02730   225.00000     0.09979
    10.80000    90.00000   225.00000     0.08088    86.02308   225.00000     0.09967
    10.90000    90.00000   225.00000     0.08076    86.01885   225.00000     0.09955
    11.00000    90.00000   225.00000     0.08065    86.01460   225.00000     0.09943
    11.10000    90.00000   225.00000     0.08054    86.01035   225.00000     0.09931
    11.20000    90.00000   225.00000     0.08043    86.00609   225.00000     0.09919
    11.30000    90.00000   225.00000     0.08032    86.00182   225.00000     0.09907
    11.40000    90.00000   225.00000     0.08020    85.99754   225.00000     0.09896
    11.50000    90.00000   225.00000     0.08009    85.99325   225.00000     0.09884
    11.60000    90.00000   225.00000     0.07998    85.98895   225.00000     0.09872
    11.70000    90.00000   225.00000     0.07987    85.98464   225.00000     0.09860
    11.80000    90.00000   225.00000     0.07976    85.98032   225.00000     0.09848
    11.90000    90.00000   225.00000     0.07964    85.97599   225.00000     0.09836
    12.00000    90.00000   225.00000     0.07953    85.97165   225.00000     0.09824
    12.10000    90.00000   225.00000     0.07942    85.96731   225.00000     0.09812
    12.20000    90.00000   225.00000     0.07931    85.96295   225.00000     0.09800
    12.30000    90.00000   225.00000     0.07919    85.95858   225.00000     0.09788
    12.40000    90.00000   225.00000     0.07908    85.95420   225.00000     0.09776
    12.50000    90.00000   225.00000     0.07897    85.94981   225.00000     0.09764
    12.60000    90.00000   225.00000     0.07886    85.94541   225.00000     0.09752
    12.70000    90.00000   225.00000     0.07875    85.94100   225.00000     0.09740
    12.80000    90.00000   225.00000     0.07863    85.93658   225.00000     0.09728
    12.90000    90.00000   225.00000     0.07852    85.93215   225.00000     0.09716
    13.00000    90.00000   225.00000     0.07841    85.92771   225.00000     0.09704
    13.10000    90.00000   225.00000     0.07830    85.92326   225.00000     0.09692
    13.20000    90.00000   225.00000     0.07819    85.91880   225.00000     0.09680
    13.30000    90.00000   225.00000     0.07807    85.91433   225.00000     0.09668
    13.40000    90.00000   225.00000     0.07796    85.90985   225.00000     0.09657
    13.50000    90.00000   225.00000     0.07785    85.90536   225.00000     0.09645
    13.60000    90.00000   225.00000     0.07774    85.90086   225.00000     0.09633
    13.70000    90.00000   225.00000     0.07763    85.89635   225.00000     0.09621
    13.80000    90.00000   225.00000     0.07751    85.89182   225.00000     0.09609
    13.90000    90.00000   225.00000     0.07740    85.88729   225.00000     0.09597
    14.00000    90.00000   225.00000     0.07729    85.88275   225.00000     0.09585
    14.10000    90.00000   225.00000     0.07718    85.87819   225.00000     0.09573
    14.20000    90.00000   225.00000     0.07707    85.87363   225.00000     0.09561
    14.30000    90.00000   225.00000     0.07695    85.86905   225.00000     0.09549
    14.40000    90.00000   225.00000     0.07684    85.86446   225.00000     0.09537
    14.50000    90.00000   225.00000     0.07673    85.85986   225.00000     0.09525
    14.60000    90.00000   225.00000     0.07662    85.85526   225.00000     0.09513
    14.70000    90.00000   225.00000     0.07651    85.85064   225.00000     0.09501
    14.80000    90.00000   225.00000     0.07639    85.84601   225.00000     0.09490
    14.90000    90.00000   225.00000     0.07628    85.84136   225.00000     0.09478
    15.00000    90.00000   225.00000     0.07617    85.83671   225.00000     0.09466
    15.10000    90.00000   225.00000     0.07606    85.83205   225.00000     0.09454
    15.20000    90.00000   225.00000     0.07595    85.82737   225.00000     0.09442
    15.30000    90.00000   225.00000     0.07583    85.82269   225.00000     0.09430
    15.40000    90.00000   225.00000     0.07572    85.81799   225.00000     0.09418
    15.50000    90.00000   225.00000     0.07561    85.81328   225.00000     0.09406
    15.60000    90.00000   225.00000     0.07550    85.80856   225.00000     0.09394
    15.70000    90.00000   225.00000     0.07539    85.80383   225.00000     0.09382
    15.80000    90.00000   225.00000     0.07528    85.79909   225.00000     0.09370
    15.90000    90.00000   225.00000     0.07516    85.79434   225.00000     0.09358
    16.00000    90.00000   225.00000     0.07505    85.78957   225.00000     0.09347
    16.10000    90.00000   225.00000     0.07494    85.78480   225.00000     0.09335
    16.20000    90.00000   225.00000     0.07483    85.78001   225.00000     0.09323
    16.30000    90.00000   225.00000     0.07472    85.77521   225.00000     0.09311
    16.40000    90.00000   225.00000     0.07460    85.77040   225.00000     0.09299
    16.50000    90.00000   225.00000     0.07449    85.76558   225.00000     0.09287
    16.60000    90.00000   225.00000     0.07438    85.76074   225.00000     0.09275
    16.70000    90.00000   225.00000     0.07427    85.75590   225.00000     0.09263
    16.80000    90.00000   225.00000     0.07416    85.75104   225.00000     0.09251
    16.90000    90.00000   225.00000     0.07405    85.74617   225.00000     0.09239
    17.00000    90.00000   225.00000     0.07393    85.74129   225.00000     0.09228
    17.10000    90.00000   225.00000     0.07382    85.73640   225.00000     0.09216
    17.20000    90.00000   225.00000     0.07371    85.73149   225.00000     0.09204
    17.30000    90.00000   225.00000     0.07360    85.72658   225.00000     0.09192
    17.40000    90.00000   225.00000     0.07349    85.72165   225.00000     0.09180
    17.50000    90.00000   225.00000     0.07337    85.71671   225.00000     0.09168
    17.60000    90.00000   225.00000     0.07326    85.71175   225.00000     0.09156
    17.70000    90.00000   225.00000     0.07315    85.70679   225.00000     0.09144
    17.80000    90.00000   225.00000     0.07304    85.70181   225.00000     0.09132
    17.90000    90.00000   225.00000     0.07293    85.69682   225.00000     0.09121
    18.00000    90.00000   225.00000     0.07282    85.69182   225.00000     0.09109
    18.10000    90.00000   225.00000     0.07270    85.68680   225.00000     0.09097
    18.20000    90.00000   225.00000     0.07259    85.68178   225.00000     0.09085
    18.30000    90.00000   225.00000     0.07248    85.67674   225.00000     0.09073
    18.40000    90.00000   225.00000     0.07237    85.67169   225.00000     0.09061
    18.50000    90.00000   225.00000     0.07226    85.66662   225.00000     0.09049
    18.60000    90.00000   225.00000     0.07215    85.66155   225.00000     0.09037
    18.70000    90.00000   225.00000     0.07203    85.65646   225.00000     0.09026
    18.80000    90.00000   225.00000     0.07192    85.65135   225.00000     0.09014
    18.90000    90.00000   225.00000     0.07181    85.64624   225.00000     0.09002
    19.00000    90.00000   225.00000     0.07170    85.64111   225.00000     0.08990
    19.10000    90.00000   225.00000     0.07159    85.63597   225.00000     0.08978
    19.20000    90.00000   225.00000     0.07148    85.63082   225.00000     0.08966
    19.30000    90.00000   225.00000     0.07136    85.62565   225.00000     0.08954
    19.40000    90.00000   225.00000     0.07125    85.62047   225.00000     0.08942
    19.50000    90.00000   225.00000     0.07114    85.61528   225.00000     0.08931
    19.60000    90.00000   225.00000     0.07103    85.61008   225.00000     0.08919
    19.70000    90.00000   225.00000     0.07092    85.60486   225.00000     0.08907
    19.80000    90.00000   225.00000     0.07081    85.59963   225.00000     0.08895
    19.90000    90.00000   225.00000     0.07069    85.59438   225.00000     0.08883
    20.00000    90.00000   225.00000     0.07058    85.58912   225.00000     0.08871
    20.10000    90.00000   225.00000     0.07047    85.58385   225.00000     0.08859
    20.20000    90.00000   225.00000     0.07036    85.57857   225.00000     0.08847
    20.30000    90.00000   225.00000     0.07025    85.57327   225.00000     0.08836
    20.40000    90.00000   225.00000     0.07014    85.56796   225.00000     0.08824
    20.50000    90.00000   225.00000     0.07003    85.56263   225.00000     0.08812
    20.60000    90.00000   225.00000     0.06991    85.55729   225.00000     0.08800
    20.70000    90.00000   225.00000     0.06980    85.55194   225.00000     0.08788
    20.80000    90.00000   225.00000     0.06969    85.54657   225.00000     0.08776
    20.90000    90.00000   225.00000     0.06958    85.54119   225.00000     0.08764
    21.00000    90.00000   225.00000     0.06947    85.53580   225.00000     0.08753
    21.10000    90.00000   225.00000     0.06936    85.53039   225.00000     0.08741
    21.20000    90.00000   225.00000     0.06925    85.52497   225.00000     0.08729
    21.30000    90.00000   225.00000     0.06913    85.51953   225.00000     0.08717
    21.40000    90.00000   225.00000     0.06902    85.51409   225.00000     0.08705
    21.50000    90.00000   225.00000     0.06891    85.50862   225.00000     0.08693
    21.60000    90.00000   225.00000     0.06880    85.50314   225.00000     0.08682
    21.70000    90.00000   225.00000     0.06869    85.49765   225.00000     0.08670
    21.80000    90.00000   225.00000     0.06858    85.49215   225.00000     0.08658
    21.90000    90.00000   225.00000     0.06847    85.48663   225.00000     0.08646
    22.00000    90.00000   225.00000     0.06835    85.48109   225.00000     0.08634
    22.10000    90.00000   225.00000     0.06824    85.47554   225.00000     0.08622
    22.20000    90.00000   225.00000     0.06813    85.46998   225.00000     0.08611
    22.30000    90.00000   225.00000     0.06802    85.46440   225.00000     0.08599
    22.40000    90.00000   225.00000     0.06791    85.45881   225.00000     0.08587
    22.50000    90.00000   225.00000     0.06780    85.45320   225.00000     0.08575
    22.60000    90.00000   225.00000     0.06769    85.44758   225.00000     0.08563
    22.70000    90.00000   225.00000     0.06757    85.44194   225.00000     0.08551
    22.80000    90.00000   225.00000     0.06746    85.43629   225.00000     0.08539
    22.90000    90.00000   225.00000     0.06735    85.43062   225.00000     0.08528
    23.00000    90.00000   225.00000     0.06724    85.42494   225.00000     0.08516
    23.10000    90.00000   225.00000     0.06713    85.41924   225.00000     0.08504
    23.20000    90.00000   225.00000     0.06702    85.41353   225.00000     0.08492
    23.30000    90.00000   225.00000     0.06691    85.40780   225.00000     0.08480
