 # applied field (T), theta (degree), phi (degree), abs [muB/unitcell], abs [T]
       0.00000000       0.00000000       0.00000000      36.72285811       1.22763783
       0.10000000       1.25858537      45.00000000      36.72270309       1.22763265
       0.20000000       2.51720136      45.00000000      36.72249626       1.22762574
       0.30000000       3.77585791      45.00000000      36.72224041       1.22761718
       0.40000000       5.03456401      45.00000000      36.72193890       1.22760710
       0.50000000       6.29332772      45.00000000      36.72159561       1.22759563
       0.60000000       7.55215625      45.00000000      36.72121500       1.22758290
       0.70000000       8.86824858      45.00000000      36.72078087       1.22756839
       0.80000000      10.12722877      45.00000000      36.72033989       1.22755365
       0.90000000      11.44349122      45.00000000      36.71985483       1.22753743
       1.00000000      12.75984801      45.00000000      36.71935439       1.22752071
       1.10000000      14.13351245      45.00000000      36.71882168       1.22750290
       1.20000000      15.45007333      45.00000000      36.71831467       1.22748595
       1.30000000      16.88117637      45.00000000      36.71776863       1.22746769
       1.40000000      18.25518066      45.00000000      36.71726815       1.22745096
       1.50000000      19.68653174      45.00000000      36.71677617       1.22743452
       1.60000000      21.17524700      45.00000000      36.71630795       1.22741886
       1.70000000      22.66410332      45.00000000      36.71589959       1.22740521
       1.80000000      24.21034888      45.00000000      36.71554755       1.22739344
       1.90000000      25.81400312      45.00000000      36.71527277       1.22738426
       2.00000000      27.47508699      45.00000000      36.71509792       1.22737841
       2.10000000      29.19362323      45.00000000      36.71504663       1.22737670
       2.20000000      30.96963654      45.00000000      36.71514229       1.22737990
       2.30000000      32.86043622      45.00000000      36.71541328       1.22738895
       2.40000000      34.80878513      45.00000000      36.71588213       1.22740463
       2.50000000      36.87201566      45.00000000      36.71658053       1.22742798
       2.60000000      39.10750099      45.00000000      36.71755527       1.22746056
       2.70000000      41.45801684      45.00000000      36.71880467       1.22750233
       2.80000000      44.09562971      45.00000000      36.72042297       1.22755643
       2.90000000      46.96315936      45.00000000      36.72237526       1.22762169
       3.00000000      50.23279353      45.00000000      36.72472003       1.22770008
       3.10000000      54.01944408      45.00000000      36.72741064       1.22779002
       3.20000000      58.66751733      45.00000000      36.73037703       1.22788919
       3.30000000      64.86565953      45.00000000      36.73325656       1.22798545
       3.40000000      75.31044003      45.00000000      36.73425474       1.22801882
       3.50000000      90.00000000      45.00000000      36.72698267       1.22777572
       3.60000000      90.00000000      45.00000000      36.72721587       1.22778351
       3.70000000      90.00000000      45.00000000      36.72744906       1.22779131
       3.80000000      90.00000000      45.00000000      36.72768223       1.22779910
       3.90000000      90.00000000      45.00000000      36.72791539       1.22780690
       4.00000000      90.00000000      45.00000000      36.72814854       1.22781469
       4.10000000      90.00000000      45.00000000      36.72838166       1.22782249
       4.20000000      90.00000000      45.00000000      36.72861478       1.22783028
       4.30000000      90.00000000      45.00000000      36.72884788       1.22783807
       4.40000000      90.00000000      45.00000000      36.72908096       1.22784586
       4.50000000      90.00000000      45.00000000      36.72931403       1.22785365
       4.60000000      90.00000000      45.00000000      36.72954708       1.22786144
       4.70000000      90.00000000      45.00000000      36.72978006       1.22786923
       4.80000000      90.00000000      45.00000000      36.73001303       1.22787702
       4.90000000      90.00000000      45.00000000      36.73024598       1.22788481
       5.00000000      90.00000000      45.00000000      36.73047892       1.22789260
       5.10000000      90.00000000      45.00000000      36.73071185       1.22790038
       5.20000000      90.00000000      45.00000000      36.73094476       1.22790817
       5.30000000      90.00000000      45.00000000      36.73117765       1.22791595
       5.40000000      90.00000000      45.00000000      36.73141053       1.22792374
       5.50000000      90.00000000      45.00000000      36.73164339       1.22793152
       5.60000000      90.00000000      45.00000000      36.73187624       1.22793931
       5.70000000      90.00000000      45.00000000      36.73210908       1.22794709
       5.80000000      90.00000000      45.00000000      36.73234190       1.22795487
       5.90000000      90.00000000      45.00000000      36.73257471       1.22796266
       6.00000000      90.00000000      45.00000000      36.73280750       1.22797044
       6.10000000      90.00000000      45.00000000      36.73304027       1.22797822
       6.20000000      90.00000000      45.00000000      36.73327303       1.22798600
       6.30000000      90.00000000      45.00000000      36.73350578       1.22799378
       6.40000000      90.00000000      45.00000000      36.73373851       1.22800156
       6.50000000      90.00000000      45.00000000      36.73397123       1.22800934
       6.60000000      90.00000000      45.00000000      36.73420393       1.22801712
       6.70000000      90.00000000      45.00000000      36.73443661       1.22802490
       6.80000000      90.00000000      45.00000000      36.73466928       1.22803268
       6.90000000      90.00000000      45.00000000      36.73490193       1.22804046
       7.00000000      90.00000000      45.00000000      36.73513457       1.22804823
       7.10000000      90.00000000      45.00000000      36.73536718       1.22805601
       7.20000000      90.00000000      45.00000000      36.73559979       1.22806379
       7.30000000      90.00000000      45.00000000      36.73583237       1.22807156
       7.40000000      90.00000000      45.00000000      36.73606494       1.22807934
       7.50000000      90.00000000      45.00000000      36.73629749       1.22808711
       7.60000000      90.00000000      45.00000000      36.73653003       1.22809488
       7.70000000      90.00000000      45.00000000      36.73676255       1.22810266
       7.80000000      90.00000000      45.00000000      36.73699505       1.22811043
       7.90000000      90.00000000      45.00000000      36.73722754       1.22811820
       8.00000000      90.00000000      45.00000000      36.73746000       1.22812597
       8.10000000      90.00000000      45.00000000      36.73769246       1.22813374
       8.20000000      90.00000000      45.00000000      36.73792489       1.22814151
       8.30000000      90.00000000      45.00000000      36.73815731       1.22814928
       8.40000000      90.00000000      45.00000000      36.73838971       1.22815705
       8.50000000      90.00000000      45.00000000      36.73862210       1.22816482
       8.60000000      90.00000000      45.00000000      36.73885669       1.22817266
       8.70000000      90.00000000      45.00000000      36.73908910       1.22818043
       8.80000000      90.00000000      45.00000000      36.73932149       1.22818820
       8.90000000      90.00000000      45.00000000      36.73955387       1.22819597
       9.00000000      90.00000000      45.00000000      36.73978623       1.22820374
       9.10000000      90.00000000      45.00000000      36.74001857       1.22821150
       9.20000000      90.00000000      45.00000000      36.74025090       1.22821927
       9.30000000      90.00000000      45.00000000      36.74048321       1.22822704
       9.40000000      90.00000000      45.00000000      36.74071550       1.22823480
       9.50000000      90.00000000      45.00000000      36.74094778       1.22824257
       9.60000000      90.00000000      45.00000000      36.74118004       1.22825033
       9.70000000      90.00000000      45.00000000      36.74141228       1.22825810
       9.80000000      90.00000000      45.00000000      36.74164451       1.22826586
       9.90000000      90.00000000      45.00000000      36.74187672       1.22827362
      10.00000000      90.00000000      45.00000000      36.74210892       1.22828138
      10.10000000      90.00000000      45.00000000      36.74234110       1.22828915
      10.20000000      90.00000000      45.00000000      36.74257326       1.22829691
      10.30000000      90.00000000      45.00000000      36.74280541       1.22830467
      10.40000000      90.00000000      45.00000000      36.74303754       1.22831243
      10.50000000      90.00000000      45.00000000      36.74326965       1.22832019
      10.60000000      90.00000000      45.00000000      36.74350175       1.22832795
      10.70000000      90.00000000      45.00000000      36.74373383       1.22833570
      10.80000000      90.00000000      45.00000000      36.74396589       1.22834346
      10.90000000      90.00000000      45.00000000      36.74419794       1.22835122
      11.00000000      90.00000000      45.00000000      36.74442997       1.22835898
      11.10000000      90.00000000      45.00000000      36.74466199       1.22836673
      11.20000000      90.00000000      45.00000000      36.74489399       1.22837449
      11.30000000      90.00000000      45.00000000      36.74512597       1.22838224
      11.40000000      90.00000000      45.00000000      36.74535793       1.22839000
      11.50000000      90.00000000      45.00000000      36.74558988       1.22839775
      11.60000000      90.00000000      45.00000000      36.74582181       1.22840551
      11.70000000      90.00000000      45.00000000      36.74605373       1.22841326
      11.80000000      90.00000000      45.00000000      36.74628563       1.22842101
      11.90000000      90.00000000      45.00000000      36.74651751       1.22842876
      12.00000000      90.00000000      45.00000000      36.74674937       1.22843651
      12.10000000      90.00000000      45.00000000      36.74698122       1.22844426
      12.20000000      90.00000000      45.00000000      36.74721305       1.22845201
      12.30000000      90.00000000      45.00000000      36.74744487       1.22845976
      12.40000000      90.00000000      45.00000000      36.74767666       1.22846751
      12.50000000      90.00000000      45.00000000      36.74790844       1.22847526
      12.60000000      90.00000000      45.00000000      36.74814020       1.22848301
      12.70000000      90.00000000      45.00000000      36.74837195       1.22849076
      12.80000000      90.00000000      45.00000000      36.74860368       1.22849850
      12.90000000      90.00000000      45.00000000      36.74883539       1.22850625
      13.00000000      90.00000000      45.00000000      36.74906708       1.22851399
      13.10000000      90.00000000      45.00000000      36.74929876       1.22852174
      13.20000000      90.00000000      45.00000000      36.74953042       1.22852948
      13.30000000      90.00000000      45.00000000      36.74976206       1.22853723
      13.40000000      90.00000000      45.00000000      36.74999369       1.22854497
      13.50000000      90.00000000      45.00000000      36.75022535       1.22855271
      13.60000000      90.00000000      45.00000000      36.75045694       1.22856046
      13.70000000      90.00000000      45.00000000      36.75068851       1.22856820
      13.80000000      90.00000000      45.00000000      36.75092007       1.22857594
      13.90000000      90.00000000      45.00000000      36.75115161       1.22858368
      14.00000000      90.00000000      45.00000000      36.75138313       1.22859142
      14.10000000      90.00000000      45.00000000      36.75161463       1.22859916
      14.20000000      90.00000000      45.00000000      36.75184612       1.22860690
      14.30000000      90.00000000      45.00000000      36.75207759       1.22861464
      14.40000000      90.00000000      45.00000000      36.75230904       1.22862237
      14.50000000      90.00000000      45.00000000      36.75254048       1.22863011
      14.60000000      90.00000000      45.00000000      36.75277190       1.22863785
      14.70000000      90.00000000      45.00000000      36.75300330       1.22864558
      14.80000000      90.00000000      45.00000000      36.75323469       1.22865332
      14.90000000      90.00000000      45.00000000      36.75346605       1.22866105
      15.00000000      90.00000000      45.00000000      36.75369740       1.22866879
      15.10000000      90.00000000      45.00000000      36.75392874       1.22867652
      15.20000000      90.00000000      45.00000000      36.75416005       1.22868425
      15.30000000      90.00000000      45.00000000      36.75439135       1.22869198
      15.40000000      90.00000000      45.00000000      36.75462263       1.22869972
      15.50000000      90.00000000      45.00000000      36.75485390       1.22870745
      15.60000000      90.00000000      45.00000000      36.75508515       1.22871518
      15.70000000      90.00000000      45.00000000      36.75531638       1.22872291
      15.80000000      90.00000000      45.00000000      36.75554759       1.22873064
      15.90000000      90.00000000      45.00000000      36.75577879       1.22873837
      16.00000000      90.00000000      45.00000000      36.75600997       1.22874609
      16.10000000      90.00000000      45.00000000      36.75624113       1.22875382
      16.20000000      90.00000000      45.00000000      36.75647228       1.22876155
      16.30000000      90.00000000      45.00000000      36.75670341       1.22876928
      16.40000000      90.00000000      45.00000000      36.75693452       1.22877700
      16.50000000      90.00000000      45.00000000      36.75716562       1.22878473
      16.60000000      90.00000000      45.00000000      36.75739670       1.22879245
      16.70000000      90.00000000      45.00000000      36.75762776       1.22880018
      16.80000000      90.00000000      45.00000000      36.75785880       1.22880790
      16.90000000      90.00000000      45.00000000      36.75808983       1.22881562
      17.00000000      90.00000000      45.00000000      36.75832084       1.22882335
      17.10000000      90.00000000      45.00000000      36.75855183       1.22883107
      17.20000000      90.00000000      45.00000000      36.75878280       1.22883879
      17.30000000      90.00000000      45.00000000      36.75901376       1.22884651
      17.40000000      90.00000000      45.00000000      36.75924470       1.22885423
      17.50000000      90.00000000      45.00000000      36.75947562       1.22886195
      17.60000000      90.00000000      45.00000000      36.75970652       1.22886967
      17.70000000      90.00000000      45.00000000      36.75993740       1.22887739
      17.80000000      90.00000000      45.00000000      36.76016826       1.22888510
      17.90000000      90.00000000      45.00000000      36.76039911       1.22889282
      18.00000000      90.00000000      45.00000000      36.76063063       1.22890056
      18.10000000      90.00000000      45.00000000      36.76086143       1.22890828
      18.20000000      90.00000000      45.00000000      36.76109220       1.22891599
      18.30000000      90.00000000      45.00000000      36.76132296       1.22892371
      18.40000000      90.00000000      45.00000000      36.76155370       1.22893142
      18.50000000      90.00000000      45.00000000      36.76178442       1.22893913
      18.60000000      90.00000000      45.00000000      36.76201512       1.22894684
      18.70000000      90.00000000      45.00000000      36.76224580       1.22895456
      18.80000000      90.00000000      45.00000000      36.76247646       1.22896227
      18.90000000      90.00000000      45.00000000      36.76270709       1.22896998
      19.00000000      90.00000000      45.00000000      36.76293771       1.22897769
      19.10000000      90.00000000      45.00000000      36.76316831       1.22898540
      19.20000000      90.00000000      45.00000000      36.76339889       1.22899310
      19.30000000      90.00000000      45.00000000      36.76362946       1.22900081
      19.40000000      90.00000000      45.00000000      36.76386000       1.22900852
      19.50000000      90.00000000      45.00000000      36.76409052       1.22901622
      19.60000000      90.00000000      45.00000000      36.76432103       1.22902393
      19.70000000      90.00000000      45.00000000      36.76455151       1.22903164
      19.80000000      90.00000000      45.00000000      36.76478198       1.22903934
      19.90000000      90.00000000      45.00000000      36.76501243       1.22904704
      20.00000000      90.00000000      45.00000000      36.76524286       1.22905475
      20.10000000      90.00000000      45.00000000      36.76547327       1.22906245
      20.20000000      90.00000000      45.00000000      36.76570366       1.22907015
      20.30000000      90.00000000      45.00000000      36.76593404       1.22907785
      20.40000000      90.00000000      45.00000000      36.76616439       1.22908555
      20.50000000      90.00000000      45.00000000      36.76639473       1.22909325
      20.60000000      90.00000000      45.00000000      36.76662506       1.22910095
      20.70000000      90.00000000      45.00000000      36.76685536       1.22910865
      20.80000000      90.00000000      45.00000000      36.76708565       1.22911635
      20.90000000      90.00000000      45.00000000      36.76731592       1.22912405
      21.00000000      90.00000000      45.00000000      36.76754617       1.22913175
      21.10000000      90.00000000      45.00000000      36.76777640       1.22913944
      21.20000000      90.00000000      45.00000000      36.76800662       1.22914714
      21.30000000      90.00000000      45.00000000      36.76823682       1.22915483
      21.40000000      90.00000000      45.00000000      36.76846700       1.22916253
      21.50000000      90.00000000      45.00000000      36.76869717       1.22917022
      21.60000000      90.00000000      45.00000000      36.76892732       1.22917792
      21.70000000      90.00000000      45.00000000      36.76915745       1.22918561
      21.80000000      90.00000000      45.00000000      36.76938756       1.22919330
      21.90000000      90.00000000      45.00000000      36.76961766       1.22920100
      22.00000000      90.00000000      45.00000000      36.76984773       1.22920869
      22.10000000      90.00000000      45.00000000      36.77007780       1.22921638
      22.20000000      90.00000000      45.00000000      36.77030784       1.22922407
      22.30000000      90.00000000      45.00000000      36.77053787       1.22923176
      22.40000000      90.00000000      45.00000000      36.77076788       1.22923945
      22.50000000      90.00000000      45.00000000      36.77099787       1.22924714
      22.60000000      90.00000000      45.00000000      36.77122785       1.22925482
      22.70000000      90.00000000      45.00000000      36.77145780       1.22926251
      22.80000000      90.00000000      45.00000000      36.77168775       1.22927020
      22.90000000      90.00000000      45.00000000      36.77191767       1.22927789
      23.00000000      90.00000000      45.00000000      36.77214758       1.22928557
