 # applied field (T), theta (degree), phi (degree), abs for RE 3-4
     0.00000     0.00000     0.00000     4.06795     0.00000     0.00000     4.06795
     0.10000     0.56381   360.00000     4.06793     0.46177   360.00000     4.06792
     0.20000     1.12764   360.00000     4.06789     0.92359   360.00000     4.06782
     0.30000     1.69153   360.00000     4.06781     1.38550   360.00000     4.06765
     0.40000     2.25551   360.00000     4.06770     1.84755   360.00000     4.06742
     0.50000     2.81961   360.00000     4.06756     2.30978   360.00000     4.06712
     0.60000     3.38386   360.00000     4.06740     2.77224   360.00000     4.06676
     0.70000     3.94828   360.00000     4.06720     3.23498   360.00000     4.06633
     0.80000     4.51291   360.00000     4.06698     3.69805   360.00000     4.06583
     0.90000     5.07778   360.00000     4.06674     4.16148   360.00000     4.06527
     1.00000     5.64291   360.00000     4.06647     4.62532   360.00000     4.06464
     1.10000     6.20835   360.00000     4.06618     5.08962   360.00000     4.06395
     1.20000     6.77412   360.00000     4.06587     5.55443   360.00000     4.06320
     1.30000     7.34025   360.00000     4.06555     6.01979   360.00000     4.06238
     1.40000     7.90678   360.00000     4.06521     6.48574   360.00000     4.06149
     1.50000     8.53011   360.00000     4.06482     6.99873   360.00000     4.06044
     1.60000     9.09758   360.00000     4.06446     7.46607   360.00000     4.05942
     1.70000     9.66555   360.00000     4.06409     7.93415   360.00000     4.05834
     1.80000    10.29058   360.00000     4.06369     8.44963   360.00000     4.05708
     1.90000    10.85970   360.00000     4.06332     8.91939   360.00000     4.05586
     2.00000    11.48607   360.00000     4.06292     9.43683   360.00000     4.05446
     2.10000    12.11322   360.00000     4.06253     9.95538   360.00000     4.05297
     2.20000    12.68437   360.00000     4.06220    10.42807   360.00000     4.05156
     2.30000    13.31309   360.00000     4.06184    10.94889   360.00000     4.04994
     2.40000    13.94271   360.00000     4.06152    11.47098   360.00000     4.04825
     2.50000    14.57325   360.00000     4.06122    11.99440   360.00000     4.04648
     2.60000    15.20475   360.00000     4.06097    12.51920   360.00000     4.04465
     2.70000    15.83724   360.00000     4.06075    13.04543   360.00000     4.04274
     2.80000    16.52810   360.00000     4.06058    13.62094   360.00000     4.04058
     2.90000    17.16277   360.00000     4.06047    14.15035   360.00000     4.03853
     3.00000    17.85607   360.00000     4.06043    14.72945   360.00000     4.03621
     3.10000    18.55070   360.00000     4.06048    15.31051   360.00000     4.03382
     3.20000    19.24667   360.00000     4.06062    15.89361   360.00000     4.03135
     3.30000    19.94401   360.00000     4.06086    16.47881   360.00000     4.02881
     3.40000    20.64272   360.00000     4.06121    17.06617   360.00000     4.02619
     3.50000    21.40096   360.00000     4.06172    17.70475   360.00000     4.02326
     3.60000    22.10256   360.00000     4.06233    18.29681   360.00000     4.02049
     3.70000    22.86393   360.00000     4.06314    18.94062   360.00000     4.01741
     3.80000    23.62690   360.00000     4.06413    19.58727   360.00000     4.01425
     3.90000    24.45008   360.00000     4.06540    20.28667   360.00000     4.01076
     4.00000    25.27506   360.00000     4.06689    20.98953   360.00000     4.00718
     4.10000    26.10178   360.00000     4.06863    21.69592   360.00000     4.00351
     4.20000    26.93016   360.00000     4.07062    22.40593   360.00000     3.99977
     4.30000    27.81924   360.00000     4.07306    23.17055   360.00000     3.99566
     4.40000    28.71002   360.00000     4.07581    23.93950   360.00000     3.99148
     4.50000    29.60237   360.00000     4.07890    24.71287   360.00000     3.98721
     4.60000    30.55555   360.00000     4.08258    25.54258   360.00000     3.98257
     4.70000    31.56965   360.00000     4.08694    26.42967   360.00000     3.97754
     4.80000    32.58508   360.00000     4.09179    27.32277   360.00000     3.97243
     4.90000    33.66121   360.00000     4.09746    28.27488   360.00000     3.96692
     5.00000    34.73816   360.00000     4.10369    29.23394   360.00000     3.96134
     5.10000    35.93497   360.00000     4.11129    30.30749   360.00000     3.95504
     5.20000    37.13184   360.00000     4.11962    31.38986   360.00000     3.94865
     5.30000    38.38792   360.00000     4.12914    32.53578   360.00000     3.94187
     5.40000    39.76208   360.00000     4.14047    33.80196   360.00000     3.93437
     5.50000    41.19367   360.00000     4.15330    35.13585   360.00000     3.92648
     5.60000    42.74090   360.00000     4.16830    36.59549   360.00000     3.91787
     5.70000    44.40193   360.00000     4.18570    38.18448   360.00000     3.90857
     5.80000    46.29236   360.00000     4.20702    40.02202   360.00000     3.89794
     5.90000    48.34933   360.00000     4.23192    42.05824   360.00000     3.88637
     6.00000    50.68532   360.00000     4.26206    44.41866   360.00000     3.87330
     6.10000    53.46694   360.00000     4.29998    47.29709   360.00000     3.85793
     6.20000    57.08324   360.00000     4.35128    51.14829   360.00000     3.83856
     6.30000    62.47221   360.00000     4.42784    57.10222   360.00000     3.81166
     6.40000    90.00000   360.00000     4.64258    90.00000   360.00000     3.74221
     6.50000    90.00000   360.00000     4.64258    90.00000   360.00000     3.74233
     6.60000    90.00000   360.00000     4.64259    90.00000   360.00000     3.74244
     6.70000    90.00000   360.00000     4.64259    90.00000   360.00000     3.74256
     6.80000    90.00000   360.00000     4.64259    90.00000   360.00000     3.74267
     6.90000    90.00000   360.00000     4.64260    90.00000   360.00000     3.74279
     7.00000    90.00000   360.00000     4.64260    90.00000   360.00000     3.74290
     7.10000    90.00000   360.00000     4.64261    90.00000   360.00000     3.74302
     7.20000    90.00000   360.00000     4.64261    90.00000   360.00000     3.74314
     7.30000    90.00000   360.00000     4.64262    90.00000   360.00000     3.74325
     7.40000    90.00000   360.00000     4.64262    90.00000   360.00000     3.74337
     7.50000    90.00000   360.00000     4.64262    90.00000   360.00000     3.74348
     7.60000    90.00000   360.00000     4.64263    90.00000   360.00000     3.74360
     7.70000    90.00000   360.00000     4.64263    90.00000   360.00000     3.74371
     7.80000    90.00000   360.00000     4.64264    90.00000   360.00000     3.74383
     7.90000    90.00000   360.00000     4.64264    90.00000   360.00000     3.74394
     8.00000    90.00000   360.00000     4.64265    90.00000   360.00000     3.74406
     8.10000    90.00000   360.00000     4.64265    90.00000   360.00000     3.74417
     8.20000    90.00000   360.00000     4.64265    90.00000   360.00000     3.74429
     8.30000    90.00000   360.00000     4.64266    90.00000   360.00000     3.74440
     8.40000    90.00000   360.00000     4.64266    90.00000   360.00000     3.74452
     8.50000    90.00000   360.00000     4.64267    90.00000   360.00000     3.74463
     8.60000    90.00000   360.00000     4.64267    90.00000   360.00000     3.74475
     8.70000    90.00000   360.00000     4.64267    90.00000   360.00000     3.74486
     8.80000    90.00000   360.00000     4.64268    90.00000   360.00000     3.74498
     8.90000    90.00000   360.00000     4.64268    90.00000   360.00000     3.74509
     9.00000    90.00000   360.00000     4.64269    90.00000   360.00000     3.74521
     9.10000    90.00000   360.00000     4.64269    90.00000   360.00000     3.74532
     9.20000    90.00000   360.00000     4.64269    90.00000   360.00000     3.74544
     9.30000    90.00000   360.00000     4.64270    90.00000   360.00000     3.74555
     9.40000    90.00000   360.00000     4.64270    90.00000   360.00000     3.74567
     9.50000    90.00000   360.00000     4.64271    90.00000   360.00000     3.74578
     9.60000    90.00000   360.00000     4.64271    90.00000   360.00000     3.74590
     9.70000    90.00000   360.00000     4.64271    90.00000   360.00000     3.74601
     9.80000    90.00000   360.00000     4.64272    90.00000   360.00000     3.74613
     9.90000    90.00000   360.00000     4.64272    90.00000   360.00000     3.74624
    10.00000    90.00000   360.00000     4.64272    90.00000   360.00000     3.74636
    10.10000    90.00000   360.00000     4.64273    90.00000   360.00000     3.74647
    10.20000    90.00000   360.00000     4.64273    90.00000   360.00000     3.74658
    10.30000    90.00000   360.00000     4.64274    90.00000   360.00000     3.74670
    10.40000    90.00000   360.00000     4.64274    90.00000   360.00000     3.74681
    10.50000    90.00000   360.00000     4.64274    90.00000   360.00000     3.74693
    10.60000    90.00000   360.00000     4.64275    90.00000   360.00000     3.74704
    10.70000    90.00000   360.00000     4.64275    90.00000   360.00000     3.74716
    10.80000    90.00000   360.00000     4.64275    90.00000   360.00000     3.74727
    10.90000    90.00000   360.00000     4.64276    90.00000   360.00000     3.74738
    11.00000    90.00000   360.00000     4.64276    90.00000   360.00000     3.74750
    11.10000    90.00000   360.00000     4.64276    90.00000   360.00000     3.74761
    11.20000    90.00000   360.00000     4.64277    90.00000   360.00000     3.74773
    11.30000    90.00000   360.00000     4.64277    90.00000   360.00000     3.74784
    11.40000    90.00000   360.00000     4.64277    90.00000   360.00000     3.74796
    11.50000    90.00000   360.00000     4.64278    90.00000   360.00000     3.74807
    11.60000    90.00000   360.00000     4.64278    90.00000   360.00000     3.74818
    11.70000    90.00000   360.00000     4.64279    90.00000   360.00000     3.74830
    11.80000    90.00000   360.00000     4.64279    90.00000   360.00000     3.74841
    11.90000    90.00000   360.00000     4.64279    90.00000   360.00000     3.74852
    12.00000    90.00000   360.00000     4.64280    90.00000   360.00000     3.74864
    12.10000    90.00000   360.00000     4.64280    90.00000   360.00000     3.74875
    12.20000    90.00000   360.00000     4.64280    90.00000   360.00000     3.74887
    12.30000    90.00000   360.00000     4.64281    90.00000   360.00000     3.74898
    12.40000    90.00000   360.00000     4.64281    90.00000   360.00000     3.74909
    12.50000    90.00000   360.00000     4.64281    90.00000   360.00000     3.74921
    12.60000    90.00000   360.00000     4.64282    90.00000   360.00000     3.74932
    12.70000    90.00000   360.00000     4.64282    90.00000   360.00000     3.74943
    12.80000    90.00000   360.00000     4.64282    90.00000   360.00000     3.74955
    12.90000    90.00000   360.00000     4.64282    90.00000   360.00000     3.74966
    13.00000    90.00000   360.00000     4.64283    90.00000   360.00000     3.74978
    13.10000    90.00000   360.00000     4.64283    90.00000   360.00000     3.74989
    13.20000    90.00000   360.00000     4.64283    90.00000   360.00000     3.75000
    13.30000    90.00000   360.00000     4.64284    90.00000   360.00000     3.75012
    13.40000    90.00000   360.00000     4.64284    90.00000   360.00000     3.75023
    13.50000    90.00000   360.00000     4.64284    90.00000   360.00000     3.75034
    13.60000    90.00000   360.00000     4.64285    90.00000   360.00000     3.75046
    13.70000    90.00000   360.00000     4.64285    90.00000   360.00000     3.75057
    13.80000    90.00000   360.00000     4.64285    90.00000   360.00000     3.75068
    13.90000    90.00000   360.00000     4.64286    90.00000   360.00000     3.75080
    14.00000    90.00000   360.00000     4.64286    90.00000   360.00000     3.75091
    14.10000    90.00000   360.00000     4.64286    90.00000   360.00000     3.75102
    14.20000    90.00000   360.00000     4.64286    90.00000   360.00000     3.75113
    14.30000    90.00000   360.00000     4.64287    90.00000   360.00000     3.75125
    14.40000    90.00000   360.00000     4.64287    90.00000   360.00000     3.75136
    14.50000    90.00000   360.00000     4.64287    90.00000   360.00000     3.75147
    14.60000    90.00000   360.00000     4.64288    90.00000   360.00000     3.75159
    14.70000    90.00000   360.00000     4.64288    90.00000   360.00000     3.75170
    14.80000    90.00000   360.00000     4.64288    90.00000   360.00000     3.75181
    14.90000    90.00000   360.00000     4.64289    90.00000   360.00000     3.75193
    15.00000    90.00000   360.00000     4.64289    90.00000   360.00000     3.75204
    15.10000    90.00000   360.00000     4.64289    90.00000   360.00000     3.75215
    15.20000    90.00000   360.00000     4.64289    90.00000   360.00000     3.75226
    15.30000    90.00000   360.00000     4.64290    90.00000   360.00000     3.75238
    15.40000    90.00000   360.00000     4.64290    90.00000   360.00000     3.75249
    15.50000    90.00000   360.00000     4.64290    90.00000   360.00000     3.75260
    15.60000    90.00000   360.00000     4.64290    90.00000   360.00000     3.75271
    15.70000    90.00000   360.00000     4.64291    90.00000   360.00000     3.75283
    15.80000    90.00000   360.00000     4.64291    90.00000   360.00000     3.75294
    15.90000    90.00000   360.00000     4.64291    90.00000   360.00000     3.75305
    16.00000    90.00000   360.00000     4.64292    90.00000   360.00000     3.75317
    16.10000    90.00000   360.00000     4.64292    90.00000   360.00000     3.75328
    16.20000    90.00000   360.00000     4.64292    90.00000   360.00000     3.75339
    16.30000    90.00000   360.00000     4.64292    90.00000   360.00000     3.75350
    16.40000    90.00000   360.00000     4.64293    90.00000   360.00000     3.75361
    16.50000    90.00000   360.00000     4.64293    90.00000   360.00000     3.75373
    16.60000    90.00000   360.00000     4.64293    90.00000   360.00000     3.75384
    16.70000    90.00000   360.00000     4.64293    90.00000   360.00000     3.75395
    16.80000    90.00000   360.00000     4.64294    90.00000   360.00000     3.75406
    16.90000    90.00000   360.00000     4.64294    90.00000   360.00000     3.75418
    17.00000    90.00000   360.00000     4.64294    90.00000   360.00000     3.75429
    17.10000    90.00000   360.00000     4.64294    90.00000   360.00000     3.75440
    17.20000    90.00000   360.00000     4.64295    90.00000   360.00000     3.75451
    17.30000    90.00000   360.00000     4.64295    90.00000   360.00000     3.75462
    17.40000    90.00000   360.00000     4.64295    90.00000   360.00000     3.75474
    17.50000    90.00000   360.00000     4.64295    90.00000   360.00000     3.75485
    17.60000    90.00000   360.00000     4.64295    90.00000   360.00000     3.75496
    17.70000    90.00000   360.00000     4.64296    90.00000   360.00000     3.75507
    17.80000    90.00000   360.00000     4.64296    90.00000   360.00000     3.75518
    17.90000    90.00000   360.00000     4.64296    90.00000   360.00000     3.75530
    18.00000    90.00000   360.00000     4.64296    90.00000   360.00000     3.75541
    18.10000    90.00000   360.00000     4.64297    90.00000   360.00000     3.75552
    18.20000    90.00000   360.00000     4.64297    90.00000   360.00000     3.75563
    18.30000    90.00000   360.00000     4.64297    90.00000   360.00000     3.75574
    18.40000    90.00000   360.00000     4.64297    90.00000   360.00000     3.75586
    18.50000    90.00000   360.00000     4.64298    90.00000   360.00000     3.75597
    18.60000    90.00000   360.00000     4.64298    90.00000   360.00000     3.75608
    18.70000    90.00000   360.00000     4.64298    90.00000   360.00000     3.75619
    18.80000    90.00000   360.00000     4.64298    90.00000   360.00000     3.75630
    18.90000    90.00000   360.00000     4.64298    90.00000   360.00000     3.75641
    19.00000    90.00000   360.00000     4.64299    90.00000   360.00000     3.75652
    19.10000    90.00000   360.00000     4.64299    90.00000   360.00000     3.75664
    19.20000    90.00000   360.00000     4.64299    90.00000   360.00000     3.75675
    19.30000    90.00000   360.00000     4.64299    90.00000   360.00000     3.75686
    19.40000    90.00000   360.00000     4.64299    90.00000   360.00000     3.75697
    19.50000    90.00000   360.00000     4.64300    90.00000   360.00000     3.75708
    19.60000    90.00000   360.00000     4.64300    90.00000   360.00000     3.75719
    19.70000    90.00000   360.00000     4.64300    90.00000   360.00000     3.75730
    19.80000    90.00000   360.00000     4.64300    90.00000   360.00000     3.75742
    19.90000    90.00000   360.00000     4.64300    90.00000   360.00000     3.75753
    20.00000    90.00000   360.00000     4.64301    90.00000   360.00000     3.75764
    20.10000    90.00000   360.00000     4.64301    90.00000   360.00000     3.75775
    20.20000    90.00000   360.00000     4.64301    90.00000   360.00000     3.75786
    20.30000    90.00000   360.00000     4.64301    90.00000   360.00000     3.75797
    20.40000    90.00000   360.00000     4.64301    90.00000   360.00000     3.75808
    20.50000    90.00000   360.00000     4.64302    90.00000   360.00000     3.75819
    20.60000    90.00000   360.00000     4.64302    90.00000   360.00000     3.75830
    20.70000    90.00000   360.00000     4.64302    90.00000   360.00000     3.75841
    20.80000    90.00000   360.00000     4.64302    90.00000   360.00000     3.75853
    20.90000    90.00000   360.00000     4.64302    90.00000   360.00000     3.75864
    21.00000    90.00000   360.00000     4.64302    90.00000   360.00000     3.75875
    21.10000    90.00000   360.00000     4.64303    90.00000   360.00000     3.75886
    21.20000    90.00000   360.00000     4.64303    90.00000   360.00000     3.75897
    21.30000    90.00000   360.00000     4.64303    90.00000   360.00000     3.75908
    21.40000    90.00000   360.00000     4.64303    90.00000   360.00000     3.75919
    21.50000    90.00000   360.00000     4.64303    90.00000   360.00000     3.75930
    21.60000    90.00000   360.00000     4.64303    90.00000   360.00000     3.75941
    21.70000    90.00000   360.00000     4.64304    90.00000   360.00000     3.75952
    21.80000    90.00000   360.00000     4.64304    90.00000   360.00000     3.75963
    21.90000    90.00000   360.00000     4.64304    90.00000   360.00000     3.75974
    22.00000    90.00000   360.00000     4.64304    90.00000   360.00000     3.75985
    22.10000    90.00000   360.00000     4.64304    90.00000   360.00000     3.75996
    22.20000    90.00000   360.00000     4.64304    90.00000   360.00000     3.76007
    22.30000    90.00000   360.00000     4.64305    90.00000   360.00000     3.76018
    22.40000    90.00000   360.00000     4.64305    90.00000   360.00000     3.76030
    22.50000    90.00000   360.00000     4.64305    90.00000   360.00000     3.76041
    22.60000    90.00000   360.00000     4.64305    90.00000   360.00000     3.76052
    22.70000    90.00000   360.00000     4.64305    90.00000   360.00000     3.76063
    22.80000    90.00000   360.00000     4.64305    90.00000   360.00000     3.76074
    22.90000    90.00000   360.00000     4.64305    90.00000   360.00000     3.76085
    23.00000    90.00000   360.00000     4.64306    90.00000   360.00000     3.76096
    23.10000    90.00000   360.00000     4.64306    90.00000   360.00000     3.76107
    23.20000    90.00000   360.00000     4.64306    90.00000   360.00000     3.76118
    23.30000    90.00000   360.00000     4.64306    90.00000   360.00000     3.76129
