 # applied field (T), theta (degree), phi (degree), abs for RE 3-4
     0.00000     0.00000     0.00000     4.69736     0.00000     0.00000     4.69736
     0.10000     0.41248    38.01372     4.69736     0.41248    51.98628     4.69736
     0.20000     0.82502    38.01267     4.69734     0.82502    51.98733     4.69734
     0.30000     1.23769    38.01093     4.69731     1.23769    51.98907     4.69731
     0.40000    90.00000    34.15399     4.69952    90.00000    55.84601     4.69952
     0.50000    90.00000    34.15526     4.69950    90.00000    55.84474     4.69950
     0.60000    90.00000    34.15652     4.69948    90.00000    55.84348     4.69948
     0.70000    90.00000    34.15779     4.69946    90.00000    55.84221     4.69946
     0.80000    90.00000    34.15906     4.69944    90.00000    55.84094     4.69944
     0.90000    90.00000    34.16033     4.69942    90.00000    55.83967     4.69942
     1.00000    90.00000    34.16159     4.69940    90.00000    55.83841     4.69940
     1.10000    90.00000    34.16286     4.69938    90.00000    55.83714     4.69938
     1.20000    90.00000    34.16412     4.69936    90.00000    55.83588     4.69936
     1.30000    90.00000    34.16539     4.69934    90.00000    55.83461     4.69934
     1.40000    90.00000    34.16665     4.69932    90.00000    55.83335     4.69932
     1.50000    90.00000    34.16792     4.69930    90.00000    55.83208     4.69930
     1.60000    90.00000    34.16918     4.69928    90.00000    55.83082     4.69928
     1.70000    90.00000    34.17044     4.69926    90.00000    55.82956     4.69926
     1.80000    90.00000    34.17171     4.69924    90.00000    55.82829     4.69924
     1.90000    90.00000    34.17297     4.69922    90.00000    55.82703     4.69922
     2.00000    90.00000    34.17423     4.69920    90.00000    55.82577     4.69920
     2.10000    90.00000    34.17549     4.69918    90.00000    55.82451     4.69918
     2.20000    90.00000    34.17676     4.69916    90.00000    55.82324     4.69916
     2.30000    90.00000    34.17802     4.69914    90.00000    55.82198     4.69914
     2.40000    90.00000    34.17928     4.69912    90.00000    55.82072     4.69912
     2.50000    90.00000    34.18054     4.69910    90.00000    55.81946     4.69910
     2.60000    90.00000    34.18180     4.69908    90.00000    55.81820     4.69908
     2.70000    90.00000    34.18306     4.69906    90.00000    55.81694     4.69906
     2.80000    90.00000    34.18432     4.69904    90.00000    55.81568     4.69904
     2.90000    90.00000    34.18558     4.69902    90.00000    55.81442     4.69902
     3.00000    90.00000    34.18684     4.69900    90.00000    55.81316     4.69900
     3.10000    90.00000    34.18809     4.69898    90.00000    55.81191     4.69898
     3.20000    90.00000    34.18935     4.69896    90.00000    55.81065     4.69896
     3.30000    90.00000    34.19061     4.69894    90.00000    55.80939     4.69894
     3.40000    90.00000    34.19187     4.69892    90.00000    55.80813     4.69892
     3.50000    90.00000    34.19312     4.69890    90.00000    55.80688     4.69890
     3.60000    90.00000    34.19438     4.69888    90.00000    55.80562     4.69888
     3.70000    90.00000    34.19564     4.69886    90.00000    55.80436     4.69886
     3.80000    90.00000    34.19689     4.69884    90.00000    55.80311     4.69884
     3.90000    90.00000    34.19815     4.69882    90.00000    55.80185     4.69882
     4.00000    90.00000    34.19940     4.69880    90.00000    55.80060     4.69880
     4.10000    90.00000    34.20066     4.69878    90.00000    55.79934     4.69878
     4.20000    90.00000    34.20191     4.69876    90.00000    55.79809     4.69876
     4.30000    90.00000    34.20316     4.69874    90.00000    55.79684     4.69874
     4.40000    90.00000    34.20442     4.69872    90.00000    55.79558     4.69872
     4.50000    90.00000    34.20567     4.69870    90.00000    55.79433     4.69870
     4.60000    90.00000    34.20692     4.69868    90.00000    55.79308     4.69868
     4.70000    90.00000    34.20818     4.69866    90.00000    55.79182     4.69866
     4.80000    90.00000    34.20943     4.69864    90.00000    55.79057     4.69864
     4.90000    90.00000    34.21068     4.69862    90.00000    55.78932     4.69862
     5.00000    90.00000    34.21193     4.69860    90.00000    55.78807     4.69860
     5.10000    90.00000    34.21318     4.69858    90.00000    55.78682     4.69858
     5.20000    90.00000    34.21443     4.69856    90.00000    55.78557     4.69856
     5.30000    90.00000    34.21568     4.69854    90.00000    55.78432     4.69854
     5.40000    90.00000    34.21693     4.69852    90.00000    55.78307     4.69852
     5.50000    90.00000    34.21818     4.69850    90.00000    55.78182     4.69850
     5.60000    90.00000    34.21943     4.69848    90.00000    55.78057     4.69848
     5.70000    90.00000    34.22068     4.69846    90.00000    55.77932     4.69846
     5.80000    90.00000    34.22193     4.69844    90.00000    55.77807     4.69844
     5.90000    90.00000    34.22318     4.69842    90.00000    55.77682     4.69842
     6.00000    90.00000    34.22442     4.69840    90.00000    55.77558     4.69840
     6.10000    90.00000    34.22567     4.69838    90.00000    55.77433     4.69838
     6.20000    90.00000    34.22692     4.69836    90.00000    55.77308     4.69836
     6.30000    90.00000    34.22816     4.69834    90.00000    55.77184     4.69834
     6.40000    90.00000    34.22941     4.69832    90.00000    55.77059     4.69832
     6.50000    90.00000    34.23066     4.69830    90.00000    55.76934     4.69830
     6.60000    90.00000    34.23190     4.69828    90.00000    55.76810     4.69828
     6.70000    90.00000    34.23315     4.69826    90.00000    55.76685     4.69826
     6.80000    90.00000    34.23439     4.69824    90.00000    55.76561     4.69824
     6.90000    90.00000    34.23564     4.69822    90.00000    55.76436     4.69822
     7.00000    90.00000    34.23688     4.69820    90.00000    55.76312     4.69820
     7.10000    90.00000    34.23812     4.69818    90.00000    55.76188     4.69818
     7.20000    90.00000    34.23937     4.69816    90.00000    55.76063     4.69816
     7.30000    90.00000    34.24061     4.69814    90.00000    55.75939     4.69814
     7.40000    90.00000    34.24185     4.69812    90.00000    55.75815     4.69812
     7.50000    90.00000    34.24309     4.69810    90.00000    55.75691     4.69810
     7.60000    90.00000    34.24434     4.69808    90.00000    55.75566     4.69808
     7.70000    90.00000    34.24558     4.69806    90.00000    55.75442     4.69806
     7.80000    90.00000    34.24682     4.69804    90.00000    55.75318     4.69804
     7.90000    90.00000    34.24806     4.69802    90.00000    55.75194     4.69802
     8.00000    90.00000    34.24930     4.69800    90.00000    55.75070     4.69800
     8.10000    90.00000    34.25054     4.69798    90.00000    55.74946     4.69798
     8.20000    90.00000    34.25178     4.69796    90.00000    55.74822     4.69796
     8.30000    90.00000    34.25302     4.69794    90.00000    55.74698     4.69794
     8.40000    90.00000    34.25426     4.69792    90.00000    55.74574     4.69792
     8.50000    90.00000    34.25550     4.69790    90.00000    55.74450     4.69790
     8.60000    90.00000    34.25673     4.69788    90.00000    55.74327     4.69788
     8.70000    90.00000    34.25797     4.69786    90.00000    55.74203     4.69786
     8.80000    90.00000    34.25921     4.69784    90.00000    55.74079     4.69784
     8.90000    90.00000    34.26045     4.69782    90.00000    55.73955     4.69782
     9.00000    90.00000    34.26168     4.69780    90.00000    55.73832     4.69780
     9.10000    90.00000    34.26292     4.69778    90.00000    55.73708     4.69778
     9.20000    90.00000    34.26415     4.69776    90.00000    55.73585     4.69776
     9.30000    90.00000    34.26539     4.69774    90.00000    55.73461     4.69774
     9.40000    90.00000    34.26662     4.69772    90.00000    55.73338     4.69772
     9.50000    90.00000    34.26786     4.69770    90.00000    55.73214     4.69770
     9.60000    90.00000    34.26909     4.69768    90.00000    55.73091     4.69768
     9.70000    90.00000    34.27033     4.69766    90.00000    55.72967     4.69766
     9.80000    90.00000    34.27156     4.69764    90.00000    55.72844     4.69764
     9.90000    90.00000    34.27280     4.69762    90.00000    55.72720     4.69762
    10.00000    90.00000    34.27403     4.69760    90.00000    55.72597     4.69760
    10.10000    90.00000    34.27526     4.69758    90.00000    55.72474     4.69758
    10.20000    90.00000    34.27649     4.69756    90.00000    55.72351     4.69756
    10.30000    90.00000    34.27773     4.69754    90.00000    55.72227     4.69754
    10.40000    90.00000    34.27896     4.69752    90.00000    55.72104     4.69752
    10.50000    90.00000    34.28019     4.69750    90.00000    55.71981     4.69750
    10.60000    90.00000    34.28142     4.69748    90.00000    55.71858     4.69748
    10.70000    90.00000    34.28265     4.69746    90.00000    55.71735     4.69746
    10.80000    90.00000    34.28388     4.69744    90.00000    55.71612     4.69744
    10.90000    90.00000    34.28511     4.69742    90.00000    55.71489     4.69742
    11.00000    90.00000    34.28634     4.69740    90.00000    55.71366     4.69740
    11.10000    90.00000    34.28757     4.69738    90.00000    55.71243     4.69738
    11.20000    90.00000    34.28880     4.69736    90.00000    55.71120     4.69736
    11.30000    90.00000    34.29002     4.69734    90.00000    55.70998     4.69734
    11.40000    90.00000    34.29125     4.69732    90.00000    55.70875     4.69732
    11.50000    90.00000    34.29248     4.69730    90.00000    55.70752     4.69730
    11.60000    90.00000    34.29371     4.69728    90.00000    55.70629     4.69728
    11.70000    90.00000    34.29493     4.69726    90.00000    55.70507     4.69726
    11.80000    90.00000    34.29616     4.69724    90.00000    55.70384     4.69724
    11.90000    90.00000    34.29739     4.69722    90.00000    55.70261     4.69722
    12.00000    90.00000    34.29861     4.69719    90.00000    55.70139     4.69719
    12.10000    90.00000    34.29984     4.69717    90.00000    55.70016     4.69717
    12.20000    90.00000    34.30106     4.69715    90.00000    55.69894     4.69715
    12.30000    90.00000    34.30229     4.69713    90.00000    55.69771     4.69713
    12.40000    90.00000    34.30351     4.69711    90.00000    55.69649     4.69711
    12.50000    90.00000    34.30474     4.69709    90.00000    55.69526     4.69709
    12.60000    90.00000    34.30596     4.69707    90.00000    55.69404     4.69707
    12.70000    90.00000    34.30718     4.69705    90.00000    55.69282     4.69705
    12.80000    90.00000    34.30841     4.69703    90.00000    55.69159     4.69703
    12.90000    90.00000    34.30963     4.69701    90.00000    55.69037     4.69701
    13.00000    90.00000    34.31085     4.69699    90.00000    55.68915     4.69699
    13.10000    90.00000    34.31207     4.69697    90.00000    55.68793     4.69697
    13.20000    90.00000    34.31329     4.69695    90.00000    55.68671     4.69695
    13.30000    90.00000    34.31452     4.69693    90.00000    55.68548     4.69693
    13.40000    90.00000    34.31574     4.69691    90.00000    55.68426     4.69691
    13.50000    90.00000    34.31696     4.69689    90.00000    55.68304     4.69689
    13.60000    90.00000    34.31818     4.69687    90.00000    55.68182     4.69687
    13.70000    90.00000    34.31940     4.69685    90.00000    55.68060     4.69685
    13.80000    90.00000    34.32062     4.69683    90.00000    55.67938     4.69683
    13.90000    90.00000    34.32183     4.69681    90.00000    55.67817     4.69681
    14.00000    90.00000    34.32305     4.69679    90.00000    55.67695     4.69679
    14.10000    90.00000    34.32427     4.69677    90.00000    55.67573     4.69677
    14.20000    90.00000    34.32549     4.69675    90.00000    55.67451     4.69675
    14.30000    90.00000    34.32671     4.69673    90.00000    55.67329     4.69673
    14.40000    90.00000    34.32792     4.69671    90.00000    55.67208     4.69671
    14.50000    90.00000    34.32914     4.69669    90.00000    55.67086     4.69669
    14.60000    90.00000    34.33036     4.69667    90.00000    55.66964     4.69667
    14.70000    90.00000    34.33157     4.69665    90.00000    55.66843     4.69665
    14.80000    90.00000    34.33279     4.69663    90.00000    55.66721     4.69663
    14.90000    90.00000    34.33400     4.69661    90.00000    55.66600     4.69661
    15.00000    90.00000    34.33522     4.69659    90.00000    55.66478     4.69659
    15.10000    90.00000    34.33643     4.69657    90.00000    55.66357     4.69657
    15.20000    90.00000    34.33765     4.69655    90.00000    55.66235     4.69655
    15.30000    90.00000    34.33886     4.69653    90.00000    55.66114     4.69653
    15.40000    90.00000    34.34008     4.69651    90.00000    55.65992     4.69651
    15.50000    90.00000    34.34129     4.69649    90.00000    55.65871     4.69649
    15.60000    90.00000    34.34250     4.69647    90.00000    55.65750     4.69647
    15.70000    90.00000    34.34372     4.69645    90.00000    55.65628     4.69645
    15.80000    90.00000    34.34493     4.69643    90.00000    55.65507     4.69643
    15.90000    90.00000    34.34614     4.69641    90.00000    55.65386     4.69641
    16.00000    90.00000    34.34735     4.69639    90.00000    55.65265     4.69639
    16.10000    90.00000    34.34856     4.69637    90.00000    55.65144     4.69637
    16.20000    90.00000    34.34977     4.69635    90.00000    55.65023     4.69635
    16.30000    90.00000    34.35098     4.69633    90.00000    55.64902     4.69633
    16.40000    90.00000    34.35219     4.69631    90.00000    55.64781     4.69631
    16.50000    90.00000    34.35340     4.69629    90.00000    55.64660     4.69629
    16.60000    90.00000    34.35461     4.69627    90.00000    55.64539     4.69627
    16.70000    90.00000    34.35582     4.69625    90.00000    55.64418     4.69625
    16.80000    90.00000    34.35703     4.69623    90.00000    55.64297     4.69623
    16.90000    90.00000    34.35824     4.69621    90.00000    55.64176     4.69621
    17.00000    90.00000    34.35945     4.69618    90.00000    55.64055     4.69618
    17.10000    90.00000    34.36065     4.69616    90.00000    55.63935     4.69616
    17.20000    90.00000    34.36186     4.69614    90.00000    55.63814     4.69614
    17.30000    90.00000    34.36307     4.69612    90.00000    55.63693     4.69612
    17.40000    90.00000    34.36427     4.69610    90.00000    55.63573     4.69610
    17.50000    90.00000    34.36548     4.69608    90.00000    55.63452     4.69608
    17.60000    90.00000    34.36669     4.69606    90.00000    55.63331     4.69606
    17.70000    90.00000    34.36789     4.69604    90.00000    55.63211     4.69604
    17.80000    90.00000    34.36910     4.69602    90.00000    55.63090     4.69602
    17.90000    90.00000    34.37030     4.69600    90.00000    55.62970     4.69600
    18.00000    90.00000    34.37151     4.69598    90.00000    55.62849     4.69598
    18.10000    90.00000    34.37271     4.69596    90.00000    55.62729     4.69596
    18.20000    90.00000    34.37391     4.69594    90.00000    55.62609     4.69594
    18.30000    90.00000    34.37512     4.69592    90.00000    55.62488     4.69592
    18.40000    90.00000    34.37632     4.69590    90.00000    55.62368     4.69590
    18.50000    90.00000    34.37752     4.69588    90.00000    55.62248     4.69588
    18.60000    90.00000    34.37873     4.69586    90.00000    55.62127     4.69586
    18.70000    90.00000    34.37993     4.69584    90.00000    55.62007     4.69584
    18.80000    90.00000    34.38113     4.69582    90.00000    55.61887     4.69582
    18.90000    90.00000    34.38233     4.69580    90.00000    55.61767     4.69580
    19.00000    90.00000    34.38353     4.69578    90.00000    55.61647     4.69578
    19.10000    90.00000    34.38473     4.69576    90.00000    55.61527     4.69576
    19.20000    90.00000    34.38593     4.69574    90.00000    55.61407     4.69574
    19.30000    90.00000    34.38713     4.69572    90.00000    55.61287     4.69572
    19.40000    90.00000    34.38833     4.69570    90.00000    55.61167     4.69570
    19.50000    90.00000    34.38953     4.69568    90.00000    55.61047     4.69568
    19.60000    90.00000    34.39073     4.69566    90.00000    55.60927     4.69566
    19.70000    90.00000    34.39193     4.69564    90.00000    55.60807     4.69564
    19.80000    90.00000    34.39313     4.69562    90.00000    55.60687     4.69562
    19.90000    90.00000    34.39432     4.69560    90.00000    55.60568     4.69560
    20.00000    90.00000    34.39552     4.69558    90.00000    55.60448     4.69558
    20.10000    90.00000    34.39672     4.69556    90.00000    55.60328     4.69556
    20.20000    90.00000    34.39791     4.69554    90.00000    55.60209     4.69554
    20.30000    90.00000    34.39911     4.69552    90.00000    55.60089     4.69552
    20.40000    90.00000    34.40031     4.69549    90.00000    55.59969     4.69549
    20.50000    90.00000    34.40150     4.69547    90.00000    55.59850     4.69547
    20.60000    90.00000    34.40270     4.69545    90.00000    55.59730     4.69545
    20.70000    90.00000    34.40389     4.69543    90.00000    55.59611     4.69543
    20.80000    90.00000    34.40509     4.69541    90.00000    55.59491     4.69541
    20.90000    90.00000    34.40628     4.69539    90.00000    55.59372     4.69539
    21.00000    90.00000    34.40748     4.69537    90.00000    55.59252     4.69537
    21.10000    90.00000    34.40867     4.69535    90.00000    55.59133     4.69535
    21.20000    90.00000    34.40986     4.69533    90.00000    55.59014     4.69533
    21.30000    90.00000    34.41105     4.69531    90.00000    55.58895     4.69531
    21.40000    90.00000    34.41225     4.69529    90.00000    55.58775     4.69529
    21.50000    90.00000    34.41344     4.69527    90.00000    55.58656     4.69527
    21.60000    90.00000    34.41463     4.69525    90.00000    55.58537     4.69525
    21.70000    90.00000    34.41582     4.69523    90.00000    55.58418     4.69523
    21.80000    90.00000    34.41701     4.69521    90.00000    55.58299     4.69521
    21.90000    90.00000    34.41820     4.69519    90.00000    55.58180     4.69519
    22.00000    90.00000    34.41940     4.69517    90.00000    55.58060     4.69517
    22.10000    90.00000    34.42059     4.69515    90.00000    55.57941     4.69515
    22.20000    90.00000    34.42177     4.69513    90.00000    55.57823     4.69513
    22.30000    90.00000    34.42296     4.69511    90.00000    55.57704     4.69511
    22.40000    90.00000    34.42415     4.69509    90.00000    55.57585     4.69509
    22.50000    90.00000    34.42534     4.69507    90.00000    55.57466     4.69507
    22.60000    90.00000    34.42653     4.69505    90.00000    55.57347     4.69505
    22.70000    90.00000    34.42772     4.69503    90.00000    55.57228     4.69503
    22.80000    90.00000    34.42891     4.69501    90.00000    55.57109     4.69501
    22.90000    90.00000    34.43009     4.69499    90.00000    55.56991     4.69499
    23.00000    90.00000    34.43128     4.69497    90.00000    55.56872     4.69497
    23.10000    90.00000    34.43247     4.69494    90.00000    55.56753     4.69494
    23.20000    90.00000    34.43365     4.69492    90.00000    55.56635     4.69492
    23.30000    90.00000    34.43484     4.69490    90.00000    55.56516     4.69490
