 # applied field (T), theta (degree), phi (degree), abs [muB/unitcell], abs [T]
       0.00000000       0.00000000       0.00000000      52.69229593       1.81311245
       0.10000000       0.34126410     360.00000000      52.69229718       1.81311249
       0.20000000       0.68252886     360.00000000      52.69230092       1.81311262
       0.30000000       1.08057225     360.00000000      52.69230795       1.81311286
       0.40000000       1.42184062     360.00000000      52.69231697       1.81311317
       0.50000000       1.76311170     360.00000000      52.69232850       1.81311357
       0.60000000       2.10438612     360.00000000      52.69234256       1.81311406
       0.70000000       2.50244423     360.00000000      52.69236103       1.81311469
       0.80000000       2.84372812     360.00000000      52.69238046       1.81311536
       0.90000000       3.18501741     360.00000000      52.69240247       1.81311612
       1.00000000       3.52631273     360.00000000      52.69242709       1.81311696
       1.10000000       3.86761474     360.00000000      52.69245433       1.81311790
       1.20000000       4.26570931     360.00000000      52.69248751       1.81311904
       1.30000000       4.60702801     360.00000000      52.69252038       1.81312017
       1.40000000       4.94835544     360.00000000      52.69255596       1.81312140
       1.50000000       5.34648230     360.00000000      52.69259851       1.81312286
       1.60000000       5.68783084     360.00000000      52.69263994       1.81312429
       1.70000000       6.02919013     360.00000000      52.69268419       1.81312581
       1.80000000       6.37056082     360.00000000      52.69273131       1.81312743
       1.90000000       6.76874161     360.00000000      52.69278690       1.81312934
       2.00000000       7.11013918     360.00000000      52.69284022       1.81313118
       2.10000000       7.45155016     360.00000000      52.69289655       1.81313312
       2.20000000       7.84978060     360.00000000      52.69296259       1.81313539
       2.30000000       8.19122283     360.00000000      52.69302544       1.81313755
       2.40000000       8.58949153     360.00000000      52.69309890       1.81314008
       2.50000000       8.93096798     360.00000000      52.69316851       1.81314248
       2.60000000       9.32927840     360.00000000      52.69324970       1.81314527
       2.70000000       9.67079202     360.00000000      52.69332633       1.81314791
       2.80000000      10.01232376     360.00000000      52.69340636       1.81315066
       2.90000000      10.41070130     360.00000000      52.69349946       1.81315386
       3.00000000      10.75227449     360.00000000      52.69358691       1.81315687
       3.10000000      11.15070216     360.00000000      52.69368851       1.81316037
       3.20000000      11.54915826     360.00000000      52.69379476       1.81316402
       3.30000000      11.89080087     360.00000000      52.69389411       1.81316744
       3.40000000      12.28931227     360.00000000      52.69400939       1.81317141
       3.50000000      12.68785485     360.00000000      52.69412962       1.81317555
       3.60000000      13.02957365     360.00000000      52.69424156       1.81317940
       3.70000000      13.42817664     360.00000000      52.69437137       1.81318387
       3.80000000      13.82681354     360.00000000      52.69450640       1.81318851
       3.90000000      14.22548530     360.00000000      52.69464678       1.81319334
       4.00000000      14.56731748     360.00000000      52.69477684       1.81319782
       4.10000000      14.96605637     360.00000000      52.69492754       1.81320300
       4.20000000      15.36483275     360.00000000      52.69508388       1.81320838
       4.30000000      15.76364753     360.00000000      52.69524595       1.81321396
       4.40000000      16.16250163     360.00000000      52.69541387       1.81321974
       4.50000000      16.56139593     360.00000000      52.69558773       1.81322572
       4.60000000      16.96033132     360.00000000      52.69576763       1.81323191
       4.70000000      17.35930866     360.00000000      52.69595366       1.81323831
       4.80000000      17.81525073     360.00000000      52.69616748       1.81324567
       4.90000000      18.21432096     360.00000000      52.69636685       1.81325253
       5.00000000      18.61343582     360.00000000      52.69657264       1.81325961
       5.10000000      19.06953854     360.00000000      52.69680901       1.81326774
       5.20000000      19.46875189     360.00000000      52.69702872       1.81327530
       5.30000000      19.92496948     360.00000000      52.69728096       1.81328398
       5.40000000      20.32428499     360.00000000      52.69751495       1.81329203
       5.50000000      20.78062156     360.00000000      52.69778346       1.81330127
       5.60000000      21.23702328     360.00000000      52.69806072       1.81331081
       5.70000000      21.69349122     360.00000000      52.69834683       1.81332066
       5.80000000      22.09302892     360.00000000      52.69861113       1.81332975
       5.90000000      22.60663007     360.00000000      52.69894588       1.81334127
       6.00000000      23.06330300     360.00000000      52.69925894       1.81335204
       6.10000000      23.52004625     360.00000000      52.69958109       1.81336313
       6.20000000      23.97686075     360.00000000      52.69991236       1.81337453
       6.30000000      24.49079089     360.00000000      52.70028886       1.81338748
       6.40000000      25.00481386     360.00000000      52.70067674       1.81340083
       6.50000000      25.46186618     360.00000000      52.70103755       1.81341325
       6.60000000      25.97606748     360.00000000      52.70144699       1.81342733
       6.70000000      26.49036478     360.00000000      52.70186774       1.81344181
       6.80000000      27.06185632     360.00000000      52.70234170       1.81345812
       6.90000000      27.57635954     360.00000000      52.70278599       1.81347341
       7.00000000      28.14808230     360.00000000      52.70328570       1.81349060
       7.10000000      28.71992834     360.00000000      52.70379866       1.81350825
       7.20000000      29.29189853     360.00000000      52.70432462       1.81352635
       7.30000000      29.92115352     360.00000000      52.70491152       1.81354655
       7.40000000      30.49338681     360.00000000      52.70546379       1.81356555
       7.50000000      31.18012095     360.00000000      52.70612944       1.81358845
       7.60000000      31.80983435     360.00000000      52.70675944       1.81361013
       7.70000000      32.49691884     360.00000000      52.70745586       1.81363410
       7.80000000      33.24142066     360.00000000      52.70822157       1.81366044
       7.90000000      33.98613703     360.00000000      52.70900346       1.81368735
       8.00000000      34.78833597     360.00000000      52.70985703       1.81371672
       8.10000000      35.59078114     360.00000000      52.71072615       1.81374662
       8.20000000      36.50808257     360.00000000      52.71172654       1.81378105
       8.30000000      37.48302655     360.00000000      52.71280158       1.81381804
       8.40000000      38.51566883     360.00000000      52.71395020       1.81385756
       8.50000000      39.72081200     360.00000000      52.71529167       1.81390372
       8.60000000      90.00000000     360.00000000      52.73799100       1.81468479
       8.70000000      90.00000000     360.00000000      52.73803445       1.81468629
       8.80000000      90.00000000     360.00000000      52.73807791       1.81468778
       8.90000000      90.00000000     360.00000000      52.73812138       1.81468928
       9.00000000      90.00000000     360.00000000      52.73816485       1.81469077
       9.10000000      90.00000000     360.00000000      52.73820832       1.81469227
       9.20000000      90.00000000     360.00000000      52.73825181       1.81469377
       9.30000000      90.00000000     360.00000000      52.73829529       1.81469526
       9.40000000      90.00000000     360.00000000      52.73833878       1.81469676
       9.50000000      90.00000000     360.00000000      52.73838228       1.81469826
       9.60000000      90.00000000     360.00000000      52.73842578       1.81469975
       9.70000000      90.00000000     360.00000000      52.73846929       1.81470125
       9.80000000      90.00000000     360.00000000      52.73851280       1.81470275
       9.90000000      90.00000000     360.00000000      52.73855632       1.81470425
      10.00000000      90.00000000     360.00000000      52.73859984       1.81470574
      10.10000000      90.00000000     360.00000000      52.73864337       1.81470724
      10.20000000      90.00000000     360.00000000      52.73868690       1.81470874
      10.30000000      90.00000000     360.00000000      52.73873044       1.81471024
      10.40000000      90.00000000     360.00000000      52.73877399       1.81471173
      10.50000000      90.00000000     360.00000000      52.73881754       1.81471323
      10.60000000      90.00000000     360.00000000      52.73886109       1.81471473
      10.70000000      90.00000000     360.00000000      52.73890465       1.81471623
      10.80000000      90.00000000     360.00000000      52.73894822       1.81471773
      10.90000000      90.00000000     360.00000000      52.73899179       1.81471923
      11.00000000      90.00000000     360.00000000      52.73903536       1.81472073
      11.10000000      90.00000000     360.00000000      52.73907894       1.81472223
      11.20000000      90.00000000     360.00000000      52.73912253       1.81472373
      11.30000000      90.00000000     360.00000000      52.73916612       1.81472523
      11.40000000      90.00000000     360.00000000      52.73920972       1.81472673
      11.50000000      90.00000000     360.00000000      52.73925332       1.81472823
      11.60000000      90.00000000     360.00000000      52.73929693       1.81472973
      11.70000000      90.00000000     360.00000000      52.73934054       1.81473123
      11.80000000      90.00000000     360.00000000      52.73938416       1.81473273
      11.90000000      90.00000000     360.00000000      52.73942778       1.81473423
      12.00000000      90.00000000     360.00000000      52.73947141       1.81473573
      12.10000000      90.00000000     360.00000000      52.73951504       1.81473723
      12.20000000      90.00000000     360.00000000      52.73955868       1.81473874
      12.30000000      90.00000000     360.00000000      52.73960233       1.81474024
      12.40000000      90.00000000     360.00000000      52.73964598       1.81474174
      12.50000000      90.00000000     360.00000000      52.73968963       1.81474324
      12.60000000      90.00000000     360.00000000      52.73973329       1.81474474
      12.70000000      90.00000000     360.00000000      52.73977696       1.81474625
      12.80000000      90.00000000     360.00000000      52.73982063       1.81474775
      12.90000000      90.00000000     360.00000000      52.73986431       1.81474925
      13.00000000      90.00000000     360.00000000      52.73990799       1.81475076
      13.10000000      90.00000000     360.00000000      52.73995167       1.81475226
      13.20000000      90.00000000     360.00000000      52.73999537       1.81475376
      13.30000000      90.00000000     360.00000000      52.74003906       1.81475527
      13.40000000      90.00000000     360.00000000      52.74008276       1.81475677
      13.50000000      90.00000000     360.00000000      52.74012647       1.81475827
      13.60000000      90.00000000     360.00000000      52.74017019       1.81475978
      13.70000000      90.00000000     360.00000000      52.74021390       1.81476128
      13.80000000      90.00000000     360.00000000      52.74025763       1.81476279
      13.90000000      90.00000000     360.00000000      52.74030136       1.81476429
      14.00000000      90.00000000     360.00000000      52.74034509       1.81476580
      14.10000000      90.00000000     360.00000000      52.74038883       1.81476730
      14.20000000      90.00000000     360.00000000      52.74043258       1.81476881
      14.30000000      90.00000000     360.00000000      52.74047633       1.81477031
      14.40000000      90.00000000     360.00000000      52.74052008       1.81477182
      14.50000000      90.00000000     360.00000000      52.74056384       1.81477332
      14.60000000      90.00000000     360.00000000      52.74060761       1.81477483
      14.70000000      90.00000000     360.00000000      52.74065138       1.81477633
      14.80000000      90.00000000     360.00000000      52.74069516       1.81477784
      14.90000000      90.00000000     360.00000000      52.74073894       1.81477935
      15.00000000      90.00000000     360.00000000      52.74078273       1.81478085
      15.10000000      90.00000000     360.00000000      52.74082652       1.81478236
      15.20000000      90.00000000     360.00000000      52.74087032       1.81478387
      15.30000000      90.00000000     360.00000000      52.74091412       1.81478538
      15.40000000      90.00000000     360.00000000      52.74095793       1.81478688
      15.50000000      90.00000000     360.00000000      52.74100174       1.81478839
      15.60000000      90.00000000     360.00000000      52.74104556       1.81478990
      15.70000000      90.00000000     360.00000000      52.74108939       1.81479141
      15.80000000      90.00000000     360.00000000      52.74113322       1.81479291
      15.90000000      90.00000000     360.00000000      52.74117705       1.81479442
      16.00000000      90.00000000     360.00000000      52.74122089       1.81479593
      16.10000000      90.00000000     360.00000000      52.74126474       1.81479744
      16.20000000      90.00000000     360.00000000      52.74130859       1.81479895
      16.30000000      90.00000000     360.00000000      52.74135245       1.81480046
      16.40000000      90.00000000     360.00000000      52.74139631       1.81480197
      16.50000000      90.00000000     360.00000000      52.74144018       1.81480348
      16.60000000      90.00000000     360.00000000      52.74148405       1.81480499
      16.70000000      90.00000000     360.00000000      52.74152793       1.81480650
      16.80000000      90.00000000     360.00000000      52.74157181       1.81480801
      16.90000000      90.00000000     360.00000000      52.74161570       1.81480952
      17.00000000      90.00000000     360.00000000      52.74165959       1.81481103
      17.10000000      90.00000000     360.00000000      52.74170349       1.81481254
      17.20000000      90.00000000     360.00000000      52.74174740       1.81481405
      17.30000000      90.00000000     360.00000000      52.74179131       1.81481556
      17.40000000      90.00000000     360.00000000      52.74183522       1.81481707
      17.50000000      90.00000000     360.00000000      52.74187914       1.81481858
      17.60000000      90.00000000     360.00000000      52.74192307       1.81482009
      17.70000000      90.00000000     360.00000000      52.74196700       1.81482160
      17.80000000      90.00000000     360.00000000      52.74201094       1.81482312
      17.90000000      90.00000000     360.00000000      52.74205488       1.81482463
      18.00000000      90.00000000     360.00000000      52.74209882       1.81482614
      18.10000000      90.00000000     360.00000000      52.74214278       1.81482765
      18.20000000      90.00000000     360.00000000      52.74218674       1.81482917
      18.30000000      90.00000000     360.00000000      52.74223070       1.81483068
      18.40000000      90.00000000     360.00000000      52.74227467       1.81483219
      18.50000000      90.00000000     360.00000000      52.74231864       1.81483370
      18.60000000      90.00000000     360.00000000      52.74236262       1.81483522
      18.70000000      90.00000000     360.00000000      52.74240661       1.81483673
      18.80000000      90.00000000     360.00000000      52.74245060       1.81483824
      18.90000000      90.00000000     360.00000000      52.74249459       1.81483976
      19.00000000      90.00000000     360.00000000      52.74253859       1.81484127
      19.10000000      90.00000000     360.00000000      52.74258260       1.81484279
      19.20000000      90.00000000     360.00000000      52.74262661       1.81484430
      19.30000000      90.00000000     360.00000000      52.74267063       1.81484582
      19.40000000      90.00000000     360.00000000      52.74271465       1.81484733
      19.50000000      90.00000000     360.00000000      52.74275867       1.81484885
      19.60000000      90.00000000     360.00000000      52.74280271       1.81485036
      19.70000000      90.00000000     360.00000000      52.74284675       1.81485188
      19.80000000      90.00000000     360.00000000      52.74289079       1.81485339
      19.90000000      90.00000000     360.00000000      52.74293484       1.81485491
      20.00000000      90.00000000     360.00000000      52.74297889       1.81485642
      20.10000000      90.00000000     360.00000000      52.74302295       1.81485794
      20.20000000      90.00000000     360.00000000      52.74306702       1.81485946
      20.30000000      90.00000000     360.00000000      52.74311109       1.81486097
      20.40000000      90.00000000     360.00000000      52.74315516       1.81486249
      20.50000000      90.00000000     360.00000000      52.74319924       1.81486401
      20.60000000      90.00000000     360.00000000      52.74324333       1.81486552
      20.70000000      90.00000000     360.00000000      52.74328742       1.81486704
      20.80000000      90.00000000     360.00000000      52.74333152       1.81486856
      20.90000000      90.00000000     360.00000000      52.74337562       1.81487007
      21.00000000      90.00000000     360.00000000      52.74341973       1.81487159
      21.10000000      90.00000000     360.00000000      52.74346384       1.81487311
      21.20000000      90.00000000     360.00000000      52.74350796       1.81487463
      21.30000000      90.00000000     360.00000000      52.74355209       1.81487615
      21.40000000      90.00000000     360.00000000      52.74359622       1.81487767
      21.50000000      90.00000000     360.00000000      52.74364035       1.81487918
      21.60000000      90.00000000     360.00000000      52.74368449       1.81488070
      21.70000000      90.00000000     360.00000000      52.74372864       1.81488222
      21.80000000      90.00000000     360.00000000      52.74377279       1.81488374
      21.90000000      90.00000000     360.00000000      52.74381694       1.81488526
      22.00000000      90.00000000     360.00000000      52.74386111       1.81488678
      22.10000000      90.00000000     360.00000000      52.74390527       1.81488830
      22.20000000      90.00000000     360.00000000      52.74394944       1.81488982
      22.30000000      90.00000000     360.00000000      52.74399362       1.81489134
      22.40000000      90.00000000     360.00000000      52.74403781       1.81489286
      22.50000000      90.00000000     360.00000000      52.74408199       1.81489438
      22.60000000      90.00000000     360.00000000      52.74412619       1.81489590
      22.70000000      90.00000000     360.00000000      52.74417039       1.81489742
      22.80000000      90.00000000     360.00000000      52.74421459       1.81489894
      22.90000000      90.00000000     360.00000000      52.74425880       1.81490046
      23.00000000      90.00000000     360.00000000      52.74430302       1.81490199
