 # applied field (T), theta (degree), phi (degree), abs [muB/unitcell], abs [T]
       0.00000000       0.00000000       0.00000000      45.26332838       1.52348826
       0.10000000       0.34145065      45.00000000      45.26333061       1.52348833
       0.20000000       0.68290211      45.00000000      45.26333728       1.52348856
       0.30000000       1.08114571      45.00000000      45.26335022       1.52348899
       0.40000000       1.42260176      45.00000000      45.26336640       1.52348954
       0.50000000       1.76406120      45.00000000      45.26338704       1.52349023
       0.60000000       2.10552487      45.00000000      45.26341216       1.52349108
       0.70000000       2.50378704      45.00000000      45.26344602       1.52349221
       0.80000000       2.84526265      45.00000000      45.26348069       1.52349338
       0.90000000       3.18674507      45.00000000      45.26351987       1.52349470
       1.00000000       3.52823510      45.00000000      45.26356356       1.52349617
       1.10000000       3.92653237      45.00000000      45.26361854       1.52349802
       1.20000000       4.26804169      45.00000000      45.26367191       1.52349982
       1.30000000       4.60956120      45.00000000      45.26372985       1.52350177
       1.40000000       5.00789616      45.00000000      45.26380105       1.52350416
       1.50000000       5.34944052      45.00000000      45.26386878       1.52350644
       1.60000000       5.69099761      45.00000000      45.26394114       1.52350888
       1.70000000       6.08937973      45.00000000      45.26402879       1.52351183
       1.80000000       6.43096719      45.00000000      45.26411109       1.52351460
       1.90000000       6.77256992      45.00000000      45.26419808       1.52351753
       2.00000000       7.17100858      45.00000000      45.26430245       1.52352104
       2.10000000       7.51264716      45.00000000      45.26439955       1.52352431
       2.20000000       7.91112989      45.00000000      45.26451547       1.52352821
       2.30000000       8.25280803      45.00000000      45.26462281       1.52353182
       2.40000000       8.65133915      45.00000000      45.26475043       1.52353612
       2.50000000       8.99306054      45.00000000      45.26486812       1.52354008
       2.60000000       9.39164435      45.00000000      45.26500760       1.52354478
       2.70000000       9.79025831      45.00000000      45.26515346       1.52354968
       2.80000000      10.13205339      45.00000000      45.26528728       1.52355419
       2.90000000      10.53072656      45.00000000      45.26544524       1.52355951
       3.00000000      10.92943337      45.00000000      45.26560971       1.52356504
       3.10000000      11.27131064      45.00000000      45.26575997       1.52357010
       3.20000000      11.67008307      45.00000000      45.26593678       1.52357605
       3.30000000      12.06889256      45.00000000      45.26612023       1.52358222
       3.40000000      12.46774029      45.00000000      45.26631036       1.52358862
       3.50000000      12.86662742      45.00000000      45.26650722       1.52359525
       3.60000000      13.26555512      45.00000000      45.26671084       1.52360210
       3.70000000      13.66452453      45.00000000      45.26692127       1.52360919
       3.80000000      14.06353678      45.00000000      45.26713853       1.52361650
       3.90000000      14.46259299      45.00000000      45.26736267       1.52362404
       4.00000000      14.91861221      45.00000000      45.26762206       1.52363277
       4.10000000      15.31776642      45.00000000      45.26786091       1.52364081
       4.20000000      15.71696801      45.00000000      45.26810672       1.52364909
       4.30000000      16.17315779      45.00000000      45.26839061       1.52365864
       4.40000000      16.57246458      45.00000000      45.26865129       1.52366742
       4.50000000      17.02877748      45.00000000      45.26895198       1.52367754
       4.60000000      17.48515828      45.00000000      45.26926159       1.52368796
       4.70000000      17.88463547      45.00000000      45.26954512       1.52369750
       4.80000000      18.34114740      45.00000000      45.26987159       1.52370849
       4.90000000      18.79773137      45.00000000      45.27020697       1.52371978
       5.00000000      19.31138934      45.00000000      45.27058930       1.52373265
       5.10000000      19.76813099      45.00000000      45.27094348       1.52374457
       5.20000000      20.22494883      45.00000000      45.27130648       1.52375679
       5.30000000      20.73887507      45.00000000      45.27171944       1.52377068
       5.40000000      21.25290128      45.00000000      45.27214322       1.52378495
       5.50000000      21.76702909      45.00000000      45.27257771       1.52379957
       5.60000000      22.28126006      45.00000000      45.27302279       1.52381455
       5.70000000      22.79559565      45.00000000      45.27347831       1.52382989
       5.80000000      23.36712791      45.00000000      45.27399081       1.52384714
       5.90000000      23.93879314      45.00000000      45.27451556       1.52386480
       6.00000000      24.51059297      45.00000000      45.27505228       1.52388286
       6.10000000      25.13966202      45.00000000      45.27565078       1.52390301
       6.20000000      25.71174928      45.00000000      45.27621145       1.52392188
       6.30000000      26.39830196      45.00000000      45.27688761       1.52394464
       6.40000000      27.08505684      45.00000000      45.27757833       1.52396789
       6.50000000      90.00000000      45.00000000      45.29917147       1.52469467
       6.60000000      90.00000000      45.00000000      45.29921770       1.52469623
       6.70000000      90.00000000      45.00000000      45.29926394       1.52469779
       6.80000000      90.00000000      45.00000000      45.29931018       1.52469934
       6.90000000      90.00000000      45.00000000      45.29935643       1.52470090
       7.00000000      90.00000000      45.00000000      45.29940269       1.52470246
       7.10000000      90.00000000      45.00000000      45.29944895       1.52470401
       7.20000000      90.00000000      45.00000000      45.29949521       1.52470557
       7.30000000      90.00000000      45.00000000      45.29954149       1.52470713
       7.40000000      90.00000000      45.00000000      45.29958776       1.52470869
       7.50000000      90.00000000      45.00000000      45.29963405       1.52471024
       7.60000000      90.00000000      45.00000000      45.29968034       1.52471180
       7.70000000      90.00000000      45.00000000      45.29972663       1.52471336
       7.80000000      90.00000000      45.00000000      45.29977293       1.52471492
       7.90000000      90.00000000      45.00000000      45.29981924       1.52471648
       8.00000000      90.00000000      45.00000000      45.29986555       1.52471804
       8.10000000      90.00000000      45.00000000      45.29991187       1.52471959
       8.20000000      90.00000000      45.00000000      45.29995819       1.52472115
       8.30000000      90.00000000      45.00000000      45.30000452       1.52472271
       8.40000000      90.00000000      45.00000000      45.30005086       1.52472427
       8.50000000      90.00000000      45.00000000      45.30009720       1.52472583
       8.60000000      90.00000000      45.00000000      45.30014354       1.52472739
       8.70000000      90.00000000      45.00000000      45.30018990       1.52472895
       8.80000000      90.00000000      45.00000000      45.30023626       1.52473051
       8.90000000      90.00000000      45.00000000      45.30028262       1.52473207
       9.00000000      90.00000000      45.00000000      45.30032899       1.52473363
       9.10000000      90.00000000      45.00000000      45.30037536       1.52473520
       9.20000000      90.00000000      45.00000000      45.30042175       1.52473676
       9.30000000      90.00000000      45.00000000      45.30046813       1.52473832
       9.40000000      90.00000000      45.00000000      45.30051453       1.52473988
       9.50000000      90.00000000      45.00000000      45.30056092       1.52474144
       9.60000000      90.00000000      45.00000000      45.30060733       1.52474300
       9.70000000      90.00000000      45.00000000      45.30065374       1.52474456
       9.80000000      90.00000000      45.00000000      45.30070016       1.52474613
       9.90000000      90.00000000      45.00000000      45.30074658       1.52474769
      10.00000000      90.00000000      45.00000000      45.30079301       1.52474925
      10.10000000      90.00000000      45.00000000      45.30083944       1.52475082
      10.20000000      90.00000000      45.00000000      45.30088588       1.52475238
      10.30000000      90.00000000      45.00000000      45.30093232       1.52475394
      10.40000000      90.00000000      45.00000000      45.30097877       1.52475551
      10.50000000      90.00000000      45.00000000      45.30102523       1.52475707
      10.60000000      90.00000000      45.00000000      45.30107169       1.52475863
      10.70000000      90.00000000      45.00000000      45.30111816       1.52476020
      10.80000000      90.00000000      45.00000000      45.30116463       1.52476176
      10.90000000      90.00000000      45.00000000      45.30121111       1.52476333
      11.00000000      90.00000000      45.00000000      45.30125760       1.52476489
      11.10000000      90.00000000      45.00000000      45.30130409       1.52476645
      11.20000000      90.00000000      45.00000000      45.30135059       1.52476802
      11.30000000      90.00000000      45.00000000      45.30139709       1.52476958
      11.40000000      90.00000000      45.00000000      45.30144360       1.52477115
      11.50000000      90.00000000      45.00000000      45.30149011       1.52477272
      11.60000000      90.00000000      45.00000000      45.30153663       1.52477428
      11.70000000      90.00000000      45.00000000      45.30158316       1.52477585
      11.80000000      90.00000000      45.00000000      45.30162969       1.52477741
      11.90000000      90.00000000      45.00000000      45.30167623       1.52477898
      12.00000000      90.00000000      45.00000000      45.30172277       1.52478055
      12.10000000      90.00000000      45.00000000      45.30176932       1.52478211
      12.20000000      90.00000000      45.00000000      45.30181588       1.52478368
      12.30000000      90.00000000      45.00000000      45.30186244       1.52478525
      12.40000000      90.00000000      45.00000000      45.30190900       1.52478682
      12.50000000      90.00000000      45.00000000      45.30195558       1.52478838
      12.60000000      90.00000000      45.00000000      45.30200215       1.52478995
      12.70000000      90.00000000      45.00000000      45.30204874       1.52479152
      12.80000000      90.00000000      45.00000000      45.30209533       1.52479309
      12.90000000      90.00000000      45.00000000      45.30214192       1.52479465
      13.00000000      90.00000000      45.00000000      45.30218852       1.52479622
      13.10000000      90.00000000      45.00000000      45.30223513       1.52479779
      13.20000000      90.00000000      45.00000000      45.30228174       1.52479936
      13.30000000      90.00000000      45.00000000      45.30232836       1.52480093
      13.40000000      90.00000000      45.00000000      45.30237499       1.52480250
      13.50000000      90.00000000      45.00000000      45.30242162       1.52480407
      13.60000000      90.00000000      45.00000000      45.30246825       1.52480564
      13.70000000      90.00000000      45.00000000      45.30251490       1.52480721
      13.80000000      90.00000000      45.00000000      45.30256154       1.52480878
      13.90000000      90.00000000      45.00000000      45.30260820       1.52481035
      14.00000000      90.00000000      45.00000000      45.30265486       1.52481192
      14.10000000      90.00000000      45.00000000      45.30270152       1.52481349
      14.20000000      90.00000000      45.00000000      45.30274819       1.52481506
      14.30000000      90.00000000      45.00000000      45.30279487       1.52481663
      14.40000000      90.00000000      45.00000000      45.30284155       1.52481820
      14.50000000      90.00000000      45.00000000      45.30288824       1.52481977
      14.60000000      90.00000000      45.00000000      45.30293494       1.52482135
      14.70000000      90.00000000      45.00000000      45.30298164       1.52482292
      14.80000000      90.00000000      45.00000000      45.30302834       1.52482449
      14.90000000      90.00000000      45.00000000      45.30307506       1.52482606
      15.00000000      90.00000000      45.00000000      45.30312177       1.52482763
      15.10000000      90.00000000      45.00000000      45.30316850       1.52482921
      15.20000000      90.00000000      45.00000000      45.30321523       1.52483078
      15.30000000      90.00000000      45.00000000      45.30326196       1.52483235
      15.40000000      90.00000000      45.00000000      45.30330870       1.52483393
      15.50000000      90.00000000      45.00000000      45.30335545       1.52483550
      15.60000000      90.00000000      45.00000000      45.30340220       1.52483707
      15.70000000      90.00000000      45.00000000      45.30344896       1.52483865
      15.80000000      90.00000000      45.00000000      45.30349573       1.52484022
      15.90000000      90.00000000      45.00000000      45.30354250       1.52484180
      16.00000000      90.00000000      45.00000000      45.30358927       1.52484337
      16.10000000      90.00000000      45.00000000      45.30363606       1.52484494
      16.20000000      90.00000000      45.00000000      45.30368284       1.52484652
      16.30000000      90.00000000      45.00000000      45.30372964       1.52484809
      16.40000000      90.00000000      45.00000000      45.30377644       1.52484967
      16.50000000      90.00000000      45.00000000      45.30382324       1.52485125
      16.60000000      90.00000000      45.00000000      45.30387005       1.52485282
      16.70000000      90.00000000      45.00000000      45.30391687       1.52485440
      16.80000000      90.00000000      45.00000000      45.30396369       1.52485597
      16.90000000      90.00000000      45.00000000      45.30401052       1.52485755
      17.00000000      90.00000000      45.00000000      45.30405736       1.52485913
      17.10000000      90.00000000      45.00000000      45.30410420       1.52486070
      17.20000000      90.00000000      45.00000000      45.30415104       1.52486228
      17.30000000      90.00000000      45.00000000      45.30419790       1.52486386
      17.40000000      90.00000000      45.00000000      45.30424475       1.52486543
      17.50000000      90.00000000      45.00000000      45.30429162       1.52486701
      17.60000000      90.00000000      45.00000000      45.30433849       1.52486859
      17.70000000      90.00000000      45.00000000      45.30438536       1.52487017
      17.80000000      90.00000000      45.00000000      45.30443225       1.52487174
      17.90000000      90.00000000      45.00000000      45.30447913       1.52487332
      18.00000000      90.00000000      45.00000000      45.30452603       1.52487490
      18.10000000      90.00000000      45.00000000      45.30457293       1.52487648
      18.20000000      90.00000000      45.00000000      45.30461983       1.52487806
      18.30000000      90.00000000      45.00000000      45.30466674       1.52487964
      18.40000000      90.00000000      45.00000000      45.30471366       1.52488122
      18.50000000      90.00000000      45.00000000      45.30476058       1.52488279
      18.60000000      90.00000000      45.00000000      45.30480751       1.52488437
      18.70000000      90.00000000      45.00000000      45.30485444       1.52488595
      18.80000000      90.00000000      45.00000000      45.30490138       1.52488753
      18.90000000      90.00000000      45.00000000      45.30494833       1.52488911
      19.00000000      90.00000000      45.00000000      45.30499528       1.52489069
      19.10000000      90.00000000      45.00000000      45.30504224       1.52489227
      19.20000000      90.00000000      45.00000000      45.30508920       1.52489386
      19.30000000      90.00000000      45.00000000      45.30513617       1.52489544
      19.40000000      90.00000000      45.00000000      45.30518315       1.52489702
      19.50000000      90.00000000      45.00000000      45.30523013       1.52489860
      19.60000000      90.00000000      45.00000000      45.30527712       1.52490018
      19.70000000      90.00000000      45.00000000      45.30532411       1.52490176
      19.80000000      90.00000000      45.00000000      45.30537111       1.52490334
      19.90000000      90.00000000      45.00000000      45.30541812       1.52490493
      20.00000000      90.00000000      45.00000000      45.30546513       1.52490651
      20.10000000      90.00000000      45.00000000      45.30551214       1.52490809
      20.20000000      90.00000000      45.00000000      45.30555917       1.52490967
      20.30000000      90.00000000      45.00000000      45.30560619       1.52491126
      20.40000000      90.00000000      45.00000000      45.30565323       1.52491284
      20.50000000      90.00000000      45.00000000      45.30570027       1.52491442
      20.60000000      90.00000000      45.00000000      45.30574731       1.52491601
      20.70000000      90.00000000      45.00000000      45.30579437       1.52491759
      20.80000000      90.00000000      45.00000000      45.30584142       1.52491917
      20.90000000      90.00000000      45.00000000      45.30588849       1.52492076
      21.00000000      90.00000000      45.00000000      45.30593556       1.52492234
      21.10000000      90.00000000      45.00000000      45.30598263       1.52492393
      21.20000000      90.00000000      45.00000000      45.30602972       1.52492551
      21.30000000      90.00000000      45.00000000      45.30607680       1.52492710
      21.40000000      90.00000000      45.00000000      45.30612390       1.52492868
      21.50000000      90.00000000      45.00000000      45.30617100       1.52493027
      21.60000000      90.00000000      45.00000000      45.30621810       1.52493185
      21.70000000      90.00000000      45.00000000      45.30626521       1.52493344
      21.80000000      90.00000000      45.00000000      45.30631233       1.52493502
      21.90000000      90.00000000      45.00000000      45.30635945       1.52493661
      22.00000000      90.00000000      45.00000000      45.30640658       1.52493820
      22.10000000      90.00000000      45.00000000      45.30645371       1.52493978
      22.20000000      90.00000000      45.00000000      45.30650086       1.52494137
      22.30000000      90.00000000      45.00000000      45.30654800       1.52494296
      22.40000000      90.00000000      45.00000000      45.30659515       1.52494454
      22.50000000      90.00000000      45.00000000      45.30664231       1.52494613
      22.60000000      90.00000000      45.00000000      45.30668948       1.52494772
      22.70000000      90.00000000      45.00000000      45.30673665       1.52494931
      22.80000000      90.00000000      45.00000000      45.30678382       1.52495089
      22.90000000      90.00000000      45.00000000      45.30683100       1.52495248
      23.00000000      90.00000000      45.00000000      45.30687819       1.52495407
