 # applied field (T), theta (degree), phi (degree), abs for RE 1-2
     0.00000     0.45917   135.00000     4.69637     0.45917    45.00000     4.69637
     0.10000     0.31511    87.33690     4.69630     0.74324    26.73783     4.69643
     0.20000     0.46721    40.69754     4.69623     1.05999    18.93154     4.69649
     0.30000     0.75390    22.97938     4.69615     1.38708    14.75266     4.69654
     0.40000     1.07247    15.34382     4.69607     1.71853    12.17162     4.69659
     0.50000     1.40160    11.23334     4.69598     2.05217    10.42295     4.69663
     0.60000     1.73551     8.68526     4.69588     2.38706     9.16013     4.69667
     0.70000     2.07209     6.95441     4.69578     2.72272     8.20476     4.69670
     0.80000     2.41043     5.70188     4.69568     3.05890     7.45600     4.69673
     0.90000     2.75004     4.75261     4.69557     3.39544     6.85266     4.69675
     1.00000     3.09069     4.00738     4.69546     3.73227     6.35548     4.69677
     1.10000     3.43222     3.40588     4.69534     4.06934     5.93817     4.69678
     1.20000     3.77457     2.90937     4.69522     4.40663     5.58245     4.69679
     1.30000     4.11767     2.49186     4.69509     4.74412     5.27521     4.69679
     1.40000     4.46150     2.13527     4.69496     5.08181     5.00684     4.69679
     1.50000     4.80606     1.82662     4.69482     5.41971     4.77010     4.69678
     1.60000     5.15134     1.55638     4.69467     5.75782     4.55946     4.69677
     1.70000     5.49735     1.31738     4.69453     6.09617     4.37059     4.69675
     1.80000     5.84409     1.10411     4.69438     6.43477     4.20009     4.69672
     1.90000     6.19158     0.91231     4.69422     6.77363     4.04523     4.69669
     2.00000     6.58910     0.71532     4.69403     7.16071     3.88482     4.69665
     2.10000     6.93824     0.55894     4.69387     7.50020     3.75653     4.69661
     2.20000     7.28818     0.41547     4.69370     7.84002     3.63819     4.69657
     2.30000     7.63894     0.28314     4.69352     8.18019     3.52858     4.69652
     2.40000     8.04028     0.14388     4.69332     8.56888     3.41285     4.69645
     2.50000     8.39285     0.03086     4.69313     8.90987     3.31868     4.69639
     2.60000     8.79631   359.91079     4.69292     9.29955     3.21852     4.69632
     2.70000     9.15079   359.81248     4.69272     9.64147     3.13647     4.69625
     2.80000     9.55648   359.70720     4.69250    10.03227     3.04864     4.69616
     2.90000     9.91296   359.62036     4.69229    10.37522     2.97628     4.69608
     3.00000    10.32098   359.52671     4.69206    10.76725     2.89842     4.69598
     3.10000    10.73029   359.43828     4.69182    11.16000     2.82510     4.69587
     3.20000    11.09000   359.36466     4.69160    11.50473     2.76426     4.69577
     3.30000    11.50179   359.28458     4.69135    11.89890     2.69836     4.69565
     3.40000    11.91496   359.20829     4.69110    12.29387     2.63591     4.69553
     3.50000    12.32951   359.13545     4.69084    12.68968     2.57662     4.69540
     3.60000    12.74549   359.06572     4.69057    13.08637     2.52021     4.69526
     3.70000    13.21470   358.99071     4.69027    13.53326     2.46001     4.69510
     3.80000    13.63378   358.92671     4.69000    13.93191     2.40902     4.69495
     3.90000    14.05436   358.86504     4.68972    14.33154     2.36031     4.69479
     4.00000    14.52883   358.79828     4.68941    14.78186     2.30807     4.69461
     4.10000    14.95266   358.74097     4.68912    15.18368     2.26365     4.69444
     4.20000    15.43085   358.67870     4.68880    15.63653     2.21591     4.69424
     4.30000    15.91105   358.61853     4.68848    16.09080     2.17031     4.69404
     4.40000    16.39329   358.56029     4.68815    16.54651     2.12671     4.69383
     4.50000    16.87758   358.50382     4.68781    17.00372     2.08499     4.69361
     4.60000    17.36396   358.44901     4.68748    17.46246     2.04502     4.69339
     4.70000    17.90639   358.38993     4.68710    17.97361     2.00260     4.69313
     4.80000    18.45145   358.33260     4.68672    18.48675     1.96211     4.69286
     4.90000    18.99914   358.27689     4.68634    19.00196     1.92342     4.69259
     5.00000    19.54949   358.22269     4.68596    19.51927     1.88645     4.69231
     5.10000    20.10251   358.16990     4.68557    20.03875     1.85111     4.69202
     5.20000    20.71352   358.11339     4.68515    20.61234     1.81405     4.69169
     5.30000    21.32778   358.05838     4.68473    21.18868     1.77877     4.69136
     5.40000    21.94528   358.00479     4.68431    21.76782     1.74519     4.69102
     5.50000    22.62225   357.94785     4.68385    22.40251     1.71043     4.69063
     5.60000    23.30306   357.89242     4.68340    23.04069     1.67752     4.69024
     5.70000    24.04456   357.83398     4.68291    23.73572     1.64388     4.68981
     5.80000    24.79049   357.77713     4.68243    24.43498     1.61224     4.68937
     5.90000    25.59838   357.71761     4.68192    25.19257     1.58033     4.68888
     6.00000    26.46920   357.65570     4.68138    26.00962     1.54854     4.68835
     6.10000    27.40395   357.59172     4.68083    26.88742     1.51728     4.68778
     6.20000    89.31606   357.02748     4.67840    90.68394     2.97252     4.67840
     6.30000    89.31617   357.02788     4.67838    90.68383     2.97212     4.67838
     6.40000    89.31628   357.02829     4.67836    90.68372     2.97171     4.67836
     6.50000    89.31639   357.02869     4.67833    90.68361     2.97131     4.67833
     6.60000    89.31650   357.02910     4.67831    90.68350     2.97090     4.67831
     6.70000    89.31661   357.02950     4.67829    90.68339     2.97050     4.67829
     6.80000    89.31672   357.02991     4.67827    90.68328     2.97009     4.67827
     6.90000    89.31682   357.03031     4.67825    90.68318     2.96969     4.67825
     7.00000    89.31693   357.03072     4.67822    90.68307     2.96928     4.67822
     7.10000    89.31704   357.03112     4.67820    90.68296     2.96888     4.67820
     7.20000    89.31715   357.03153     4.67818    90.68285     2.96847     4.67818
     7.30000    89.31726   357.03193     4.67816    90.68274     2.96807     4.67816
     7.40000    89.31737   357.03234     4.67814    90.68263     2.96766     4.67814
     7.50000    89.31747   357.03274     4.67812    90.68253     2.96726     4.67812
     7.60000    89.31758   357.03314     4.67809    90.68242     2.96686     4.67809
     7.70000    89.31769   357.03355     4.67807    90.68231     2.96645     4.67807
     7.80000    89.31780   357.03395     4.67805    90.68220     2.96605     4.67805
     7.90000    89.31791   357.03435     4.67803    90.68209     2.96565     4.67803
     8.00000    89.31801   357.03476     4.67801    90.68199     2.96524     4.67801
     8.10000    89.31812   357.03516     4.67798    90.68188     2.96484     4.67798
     8.20000    89.31823   357.03556     4.67796    90.68177     2.96444     4.67796
     8.30000    89.31834   357.03597     4.67794    90.68166     2.96403     4.67794
     8.40000    89.31845   357.03637     4.67792    90.68155     2.96363     4.67792
     8.50000    89.31855   357.03677     4.67790    90.68145     2.96323     4.67790
     8.60000    89.31866   357.03717     4.67788    90.68134     2.96283     4.67788
     8.70000    89.31877   357.03758     4.67785    90.68123     2.96242     4.67785
     8.80000    89.31888   357.03798     4.67783    90.68112     2.96202     4.67783
     8.90000    89.31899   357.03838     4.67781    90.68101     2.96162     4.67781
     9.00000    89.31909   357.03878     4.67779    90.68091     2.96122     4.67779
     9.10000    89.31920   357.03918     4.67777    90.68080     2.96082     4.67777
     9.20000    89.31931   357.03959     4.67774    90.68069     2.96041     4.67774
     9.30000    89.31942   357.03999     4.67772    90.68058     2.96001     4.67772
     9.40000    89.31952   357.04039     4.67770    90.68048     2.95961     4.67770
     9.50000    89.31963   357.04079     4.67768    90.68037     2.95921     4.67768
     9.60000    89.31974   357.04119     4.67766    90.68026     2.95881     4.67766
     9.70000    89.31985   357.04159     4.67763    90.68015     2.95841     4.67763
     9.80000    89.31995   357.04199     4.67761    90.68005     2.95801     4.67761
     9.90000    89.32006   357.04239     4.67759    90.67994     2.95761     4.67759
    10.00000    89.32017   357.04279     4.67757    90.67983     2.95721     4.67757
    10.10000    89.32028   357.04319     4.67755    90.67972     2.95681     4.67755
    10.20000    89.32038   357.04359     4.67752    90.67962     2.95641     4.67752
    10.30000    89.32049   357.04399     4.67750    90.67951     2.95601     4.67750
    10.40000    89.32060   357.04439     4.67748    90.67940     2.95561     4.67748
    10.50000    89.32070   357.04479     4.67746    90.67930     2.95521     4.67746
    10.60000    89.32081   357.04519     4.67744    90.67919     2.95481     4.67744
    10.70000    89.32092   357.04559     4.67742    90.67908     2.95441     4.67742
    10.80000    89.32103   357.04599     4.67739    90.67897     2.95401     4.67739
    10.90000    89.32113   357.04639     4.67737    90.67887     2.95361     4.67737
    11.00000    89.32124   357.04679     4.67735    90.67876     2.95321     4.67735
    11.10000    89.32135   357.04719     4.67733    90.67865     2.95281     4.67733
    11.20000    89.32145   357.04759     4.67731    90.67855     2.95241     4.67731
    11.30000    89.32156   357.04799     4.67728    90.67844     2.95201     4.67728
    11.40000    89.32167   357.04838     4.67726    90.67833     2.95162     4.67726
    11.50000    89.32177   357.04878     4.67724    90.67823     2.95122     4.67724
    11.60000    89.32188   357.04918     4.67722    90.67812     2.95082     4.67722
    11.70000    89.32199   357.04958     4.67720    90.67801     2.95042     4.67720
    11.80000    89.32209   357.04998     4.67717    90.67791     2.95002     4.67717
    11.90000    89.32220   357.05037     4.67715    90.67780     2.94963     4.67715
    12.00000    89.32231   357.05077     4.67713    90.67769     2.94923     4.67713
    12.10000    89.32241   357.05117     4.67711    90.67759     2.94883     4.67711
    12.20000    89.32252   357.05157     4.67709    90.67748     2.94843     4.67709
    12.30000    89.32263   357.05196     4.67706    90.67737     2.94804     4.67706
    12.40000    89.32273   357.05236     4.67704    90.67727     2.94764     4.67704
    12.50000    89.32284   357.05276     4.67702    90.67716     2.94724     4.67702
    12.60000    89.32295   357.05316     4.67700    90.67705     2.94684     4.67700
    12.70000    89.32305   357.05355     4.67698    90.67695     2.94645     4.67698
    12.80000    89.32316   357.05395     4.67695    90.67684     2.94605     4.67695
    12.90000    89.32326   357.05434     4.67693    90.67674     2.94566     4.67693
    13.00000    89.32337   357.05474     4.67691    90.67663     2.94526     4.67691
    13.10000    89.32348   357.05514     4.67689    90.67652     2.94486     4.67689
    13.20000    89.32358   357.05553     4.67687    90.67642     2.94447     4.67687
    13.30000    89.32369   357.05593     4.67684    90.67631     2.94407     4.67684
    13.40000    89.32379   357.05632     4.67682    90.67621     2.94368     4.67682
    13.50000    89.32390   357.05672     4.67680    90.67610     2.94328     4.67680
    13.60000    89.32401   357.05712     4.67678    90.67599     2.94288     4.67678
    13.70000    89.32411   357.05751     4.67676    90.67589     2.94249     4.67676
    13.80000    89.32422   357.05791     4.67673    90.67578     2.94209     4.67673
    13.90000    89.32432   357.05830     4.67671    90.67568     2.94170     4.67671
    14.00000    89.32443   357.05870     4.67669    90.67557     2.94130     4.67669
    14.10000    89.32454   357.05909     4.67667    90.67546     2.94091     4.67667
    14.20000    89.32464   357.05949     4.67665    90.67536     2.94051     4.67665
    14.30000    89.32475   357.05988     4.67662    90.67525     2.94012     4.67662
    14.40000    89.32485   357.06027     4.67660    90.67515     2.93973     4.67660
    14.50000    89.32496   357.06067     4.67658    90.67504     2.93933     4.67658
    14.60000    89.32506   357.06106     4.67656    90.67494     2.93894     4.67656
    14.70000    89.32517   357.06146     4.67654    90.67483     2.93854     4.67654
    14.80000    89.32528   357.06185     4.67651    90.67472     2.93815     4.67651
    14.90000    89.32538   357.06224     4.67649    90.67462     2.93776     4.67649
    15.00000    89.32549   357.06264     4.67647    90.67451     2.93736     4.67647
    15.10000    89.32559   357.06303     4.67645    90.67441     2.93697     4.67645
    15.20000    89.32570   357.06342     4.67643    90.67430     2.93658     4.67643
    15.30000    89.32580   357.06382     4.67640    90.67420     2.93618     4.67640
    15.40000    89.32591   357.06421     4.67638    90.67409     2.93579     4.67638
    15.50000    89.32601   357.06460     4.67636    90.67399     2.93540     4.67636
    15.60000    89.32612   357.06500     4.67634    90.67388     2.93500     4.67634
    15.70000    89.32622   357.06539     4.67632    90.67378     2.93461     4.67632
    15.80000    89.32633   357.06578     4.67629    90.67367     2.93422     4.67629
    15.90000    89.32643   357.06617     4.67627    90.67357     2.93383     4.67627
    16.00000    89.32654   357.06657     4.67625    90.67346     2.93343     4.67625
    16.10000    89.32664   357.06696     4.67623    90.67336     2.93304     4.67623
    16.20000    89.32675   357.06735     4.67621    90.67325     2.93265     4.67621
    16.30000    89.32685   357.06774     4.67618    90.67315     2.93226     4.67618
    16.40000    89.32696   357.06813     4.67616    90.67304     2.93187     4.67616
    16.50000    89.32706   357.06852     4.67614    90.67294     2.93148     4.67614
    16.60000    89.32717   357.06892     4.67612    90.67283     2.93108     4.67612
    16.70000    89.32727   357.06931     4.67609    90.67273     2.93069     4.67609
    16.80000    89.32738   357.06970     4.67607    90.67262     2.93030     4.67607
    16.90000    89.32748   357.07009     4.67605    90.67252     2.92991     4.67605
    17.00000    89.32759   357.07048     4.67603    90.67241     2.92952     4.67603
    17.10000    89.32769   357.07087     4.67601    90.67231     2.92913     4.67601
    17.20000    89.32780   357.07126     4.67598    90.67220     2.92874     4.67598
    17.30000    89.32790   357.07165     4.67596    90.67210     2.92835     4.67596
    17.40000    89.32801   357.07204     4.67594    90.67199     2.92796     4.67594
    17.50000    89.32811   357.07243     4.67592    90.67189     2.92757     4.67592
    17.60000    89.32821   357.07282     4.67590    90.67179     2.92718     4.67590
    17.70000    89.32832   357.07321     4.67587    90.67168     2.92679     4.67587
    17.80000    89.32842   357.07360     4.67585    90.67158     2.92640     4.67585
    17.90000    89.32853   357.07399     4.67583    90.67147     2.92601     4.67583
    18.00000    89.32863   357.07438     4.67581    90.67137     2.92562     4.67581
    18.10000    89.32874   357.07477     4.67579    90.67126     2.92523     4.67579
    18.20000    89.32884   357.07516     4.67576    90.67116     2.92484     4.67576
    18.30000    89.32894   357.07555     4.67574    90.67106     2.92445     4.67574
    18.40000    89.32905   357.07594     4.67572    90.67095     2.92406     4.67572
    18.50000    89.32915   357.07633     4.67570    90.67085     2.92367     4.67570
    18.60000    89.32926   357.07671     4.67567    90.67074     2.92329     4.67567
    18.70000    89.32936   357.07710     4.67565    90.67064     2.92290     4.67565
    18.80000    89.32947   357.07749     4.67563    90.67053     2.92251     4.67563
    18.90000    89.32957   357.07788     4.67561    90.67043     2.92212     4.67561
    19.00000    89.32967   357.07827     4.67559    90.67033     2.92173     4.67559
    19.10000    89.32978   357.07866     4.67556    90.67022     2.92134     4.67556
    19.20000    89.32988   357.07904     4.67554    90.67012     2.92096     4.67554
    19.30000    89.32999   357.07943     4.67552    90.67001     2.92057     4.67552
    19.40000    89.33009   357.07982     4.67550    90.66991     2.92018     4.67550
    19.50000    89.33019   357.08021     4.67548    90.66981     2.91979     4.67548
    19.60000    89.33030   357.08059     4.67545    90.66970     2.91941     4.67545
    19.70000    89.33040   357.08098     4.67543    90.66960     2.91902     4.67543
    19.80000    89.33050   357.08137     4.67541    90.66950     2.91863     4.67541
    19.90000    89.33061   357.08175     4.67539    90.66939     2.91825     4.67539
    20.00000    89.33071   357.08214     4.67536    90.66929     2.91786     4.67536
    20.10000    89.33081   357.08253     4.67534    90.66919     2.91747     4.67534
    20.20000    89.33092   357.08291     4.67532    90.66908     2.91709     4.67532
    20.30000    89.33102   357.08330     4.67530    90.66898     2.91670     4.67530
    20.40000    89.33113   357.08369     4.67528    90.66887     2.91631     4.67528
    20.50000    89.33123   357.08407     4.67525    90.66877     2.91593     4.67525
    20.60000    89.33133   357.08446     4.67523    90.66867     2.91554     4.67523
    20.70000    89.33144   357.08485     4.67521    90.66856     2.91515     4.67521
    20.80000    89.33154   357.08523     4.67519    90.66846     2.91477     4.67519
    20.90000    89.33164   357.08562     4.67516    90.66836     2.91438     4.67516
    21.00000    89.33175   357.08600     4.67514    90.66825     2.91400     4.67514
    21.10000    89.33185   357.08639     4.67512    90.66815     2.91361     4.67512
    21.20000    89.33195   357.08677     4.67510    90.66805     2.91323     4.67510
    21.30000    89.33205   357.08716     4.67508    90.66795     2.91284     4.67508
    21.40000    89.33216   357.08754     4.67505    90.66784     2.91246     4.67505
    21.50000    89.33226   357.08793     4.67503    90.66774     2.91207     4.67503
    21.60000    89.33236   357.08831     4.67501    90.66764     2.91169     4.67501
    21.70000    89.33247   357.08870     4.67499    90.66753     2.91130     4.67499
    21.80000    89.33257   357.08908     4.67496    90.66743     2.91092     4.67496
    21.90000    89.33267   357.08946     4.67494    90.66733     2.91054     4.67494
    22.00000    89.33278   357.08985     4.67492    90.66722     2.91015     4.67492
    22.10000    89.33288   357.09023     4.67490    90.66712     2.90977     4.67490
    22.20000    89.33298   357.09062     4.67488    90.66702     2.90938     4.67488
    22.30000    89.33308   357.09100     4.67485    90.66692     2.90900     4.67485
    22.40000    89.33319   357.09138     4.67483    90.66681     2.90862     4.67483
    22.50000    89.33329   357.09177     4.67481    90.66671     2.90823     4.67481
    22.60000    89.33339   357.09215     4.67479    90.66661     2.90785     4.67479
    22.70000    89.33350   357.09253     4.67476    90.66650     2.90747     4.67476
    22.80000    89.33360   357.09292     4.67474    90.66640     2.90708     4.67474
    22.90000    89.33370   357.09330     4.67472    90.66630     2.90670     4.67472
    23.00000    89.33380   357.09368     4.67470    90.66620     2.90632     4.67470
    23.10000    89.33391   357.09407     4.67468    90.66609     2.90593     4.67468
    23.20000    89.33401   357.09445     4.67465    90.66599     2.90555     4.67465
    23.30000    89.33411   357.09483     4.67463    90.66589     2.90517     4.67463
