 # applied field (T), theta (degree), phi (degree), abs for RE 3-4
     0.00000   180.00000   360.00000     4.44843   180.00000   360.00000     4.44843
     0.10000   179.87321   230.93854     4.44843   179.87321   219.06146     4.44843
     0.20000   179.70405   230.91581     4.44842   179.70405   219.08419     4.44842
     0.30000   179.57725   230.92256     4.44842   179.57725   219.07744     4.44842
     0.40000   179.40808   230.91566     4.44841   179.40808   219.08434     4.44841
     0.50000   179.28128   230.91957     4.44841   179.28128   219.08043     4.44841
     0.60000   179.15447   230.92226     4.44840   179.15447   219.07774     4.44840
     0.70000   178.98528   230.91811     4.44838   178.98528   219.08189     4.44838
     0.80000   178.85846   230.92016     4.44837   178.85846   219.07984     4.44837
     0.90000   178.68924   230.91708     4.44835   178.68924   219.08292     4.44835
     1.00000   178.56239   230.91869     4.44834   178.56239   219.08131     4.44834
     1.10000   178.43554   230.91998     4.44832   178.43554   219.08002     4.44832
     1.20000   178.26628   230.91747     4.44830   178.26628   219.08253     4.44830
     1.30000   178.13940   230.91853     4.44828   178.13940   219.08147     4.44828
     1.40000   178.01250   230.91940     4.44826   178.01250   219.08060     4.44826
     1.50000   177.84318   230.91722     4.44823   177.84318   219.08278     4.44823
     1.60000   177.71625   230.91793     4.44820   177.71625   219.08207     4.44820
     1.70000   177.54687   230.91596     4.44817   177.54687   219.08404     4.44817
     1.80000   177.41990   230.91653     4.44814   177.41990   219.08347     4.44814
     1.90000   177.29291   230.91699     4.44811   177.29291   219.08301     4.44811
     2.00000   177.12346   230.91515     4.44807   177.12346   219.08485     4.44807
     2.10000   176.99642   230.91550     4.44804   176.99642   219.08450     4.44804
     2.20000   176.82690   230.91375     4.44799   176.82690   219.08625     4.44799
     2.30000   176.69981   230.91401     4.44795   176.69981   219.08599     4.44795
     2.40000   176.57270   230.91419     4.44792   176.57270   219.08581     4.44792
     2.50000   176.40307   230.91248     4.44787   176.40307   219.08752     4.44787
     2.60000   176.27590   230.91257     4.44783   176.27590   219.08743     4.44783
     2.70000   176.10619   230.91090     4.44777   176.10619   219.08910     4.44777
     2.80000   175.97896   230.91092     4.44773   175.97896   219.08908     4.44773
     2.90000   175.85169   230.91087     4.44768   175.85169   219.08913     4.44768
     3.00000   175.68186   230.90920     4.44762   175.68186   219.09080     4.44762
     3.10000   175.55452   230.90908     4.44757   175.55452   219.09092     4.44757
     3.20000   175.38459   230.90742     4.44750   175.38459   219.09258     4.44750
     3.30000   175.25717   230.90723     4.44745   175.25717   219.09277     4.44745
     3.40000   175.12973   230.90699     4.44740   175.12973   219.09301     4.44740
     3.50000   174.95964   230.90531     4.44733   174.95964   219.09469     4.44733
     3.60000   174.83211   230.90500     4.44727   174.83211   219.09500     4.44727
     3.70000   174.70454   230.90466     4.44721   174.70454   219.09534     4.44721
     3.80000   174.53429   230.90294     4.44714   174.53429   219.09706     4.44714
     3.90000   174.40663   230.90253     4.44707   174.40663   219.09747     4.44707
     4.00000   174.23626   230.90079     4.44699   174.23626   219.09921     4.44699
     4.10000   174.10850   230.90031     4.44693   174.10850   219.09969     4.44693
     4.20000   173.98070   230.89980     4.44686   173.98070   219.10020     4.44686
     4.30000   173.81014   230.89801     4.44677   173.81014   219.10199     4.44677
     4.40000   173.68224   230.89744     4.44670   173.68224   219.10256     4.44670
     4.50000   173.55430   230.89683     4.44663   173.55430   219.10317     4.44663
     4.60000   173.38353   230.89499     4.44654   173.38353   219.10501     4.44654
     4.70000   173.25548   230.89432     4.44647   173.25548   219.10568     4.44647
     4.80000   173.08456   230.89245     4.44637   173.08456   219.10755     4.44637
     4.90000   172.95639   230.89172     4.44629   172.95639   219.10828     4.44629
     5.00000   172.82817   230.89096     4.44621   172.82817   219.10904     4.44621
     5.10000   172.65703   230.88902     4.44611   172.65703   219.11098     4.44611
     5.20000   172.52869   230.88820     4.44603   172.52869   219.11180     4.44603
     5.30000   172.40029   230.88735     4.44594   172.40029   219.11265     4.44594
     5.40000   172.22891   230.88535     4.44583   172.22891   219.11465     4.44583
     5.50000   172.10038   230.88444     4.44575   172.10038   219.11556     4.44575
     5.60000   171.92883   230.88239     4.44563   171.92883   219.11761     4.44563
     5.70000   171.80017   230.88142     4.44554   171.80017   219.11858     4.44554
     5.80000   171.67145   230.88042     4.44545   171.67145   219.11958     4.44545
     5.90000   171.49964   230.87830     4.44533   171.49964   219.12170     4.44533
     6.00000   171.37077   230.87724     4.44524   171.37077   219.12276     4.44524
     6.10000   171.24184   230.87615     4.44514   171.24184   219.12385     4.44514
     6.20000   171.06976   230.87396     4.44501   171.06976   219.12604     4.44501
     6.30000   170.94068   230.87281     4.44492   170.94068   219.12719     4.44492
     6.40000   170.76840   230.87056     4.44478   170.76840   219.12944     4.44478
     6.50000   170.63917   230.86935     4.44468   170.63917   219.13065     4.44468
     6.60000   170.50987   230.86812     4.44458   170.50987   219.13188     4.44458
     6.70000   170.33728   230.86579     4.44444   170.33728   219.13421     4.44444
     6.80000   170.20782   230.86449     4.44434   170.20782   219.13551     4.44434
     6.90000   170.07830   230.86317     4.44423   170.07830   219.13683     4.44423
     7.00000   169.90540   230.86075     4.44409   169.90540   219.13925     4.44409
     7.10000   169.77570   230.85937     4.44398   169.77570   219.14063     4.44398
     7.20000   169.64593   230.85796     4.44386   169.64593   219.14204     4.44386
     7.30000   169.47271   230.85545     4.44372   169.47271   219.14455     4.44372
     7.40000   169.34276   230.85398     4.44360   169.34276   219.14602     4.44360
     7.50000   169.21274   230.85247     4.44348   169.21274   219.14753     4.44348
     7.60000   169.03917   230.84988     4.44333   169.03917   219.15012     4.44333
     7.70000   168.90897   230.84831     4.44321   168.90897   219.15169     4.44321
     7.80000   168.73516   230.84566     4.44305   168.73516   219.15434     4.44305
     7.90000   168.60477   230.84403     4.44293   168.60477   219.15597     4.44293
     8.00000   168.47429   230.84238     4.44281   168.47429   219.15762     4.44281
     8.10000   168.30012   230.83962     4.44264   168.30012   219.16038     4.44264
     8.20000   168.16945   230.83791     4.44251   168.16945   219.16209     4.44251
     8.30000   168.03869   230.83616     4.44239   168.03869   219.16384     4.44239
     8.40000   167.86415   230.83331     4.44222   167.86415   219.16669     4.44222
     8.50000   167.73319   230.83150     4.44208   167.73319   219.16850     4.44208
     8.60000   167.60214   230.82966     4.44195   167.60214   219.17034     4.44195
     8.70000   167.42720   230.82671     4.44178   167.42720   219.17329     4.44178
     8.80000   167.29594   230.82481     4.44164   167.29594   219.17519     4.44164
     8.90000   167.16460   230.82288     4.44150   167.16460   219.17712     4.44150
     9.00000   166.98926   230.81981     4.44132   166.98926   219.18019     4.44132
     9.10000   166.85769   230.81782     4.44118   166.85769   219.18218     4.44118
     9.20000   166.72603   230.81579     4.44104   166.72603   219.18421     4.44104
     9.30000   166.55028   230.81263     4.44085   166.55028   219.18737     4.44085
     9.40000   166.41839   230.81054     4.44071   166.41839   219.18946     4.44071
     9.50000   166.28641   230.80841     4.44056   166.28641   219.19159     4.44056
     9.60000   166.11022   230.80514     4.44037   166.11022   219.19486     4.44037
     9.70000   165.97801   230.80295     4.44022   165.97801   219.19705     4.44022
     9.80000   165.84569   230.80073     4.44007   165.84569   219.19927     4.44007
     9.90000   165.66906   230.79734     4.43987   165.66906   219.20266     4.43987
    10.00000   165.53651   230.79505     4.43972   165.53651   219.20495     4.43972
    10.10000   165.40385   230.79273     4.43956   165.40385   219.20727     4.43956
    10.20000   165.22677   230.78923     4.43936   165.22677   219.21077     4.43936
    10.30000   165.09386   230.78684     4.43920   165.09386   219.21316     4.43920
    10.40000   164.96085   230.78442     4.43904   164.96085   219.21558     4.43904
    10.50000   164.82773   230.78197     4.43888   164.82773   219.21803     4.43888
    10.60000   164.65003   230.77831     4.43867   164.65003   219.22169     4.43867
    10.70000   164.51666   230.77579     4.43851   164.51666   219.22421     4.43851
    10.80000   164.38317   230.77324     4.43835   164.38317   219.22676     4.43835
    10.90000   164.20498   230.76945     4.43813   164.20498   219.23055     4.43813
    11.00000   164.07123   230.76683     4.43796   164.07123   219.23317     4.43796
    11.10000   163.93737   230.76417     4.43779   163.93737   219.23583     4.43779
    11.20000   163.75867   230.76026     4.43757   163.75867   219.23974     4.43757
    11.30000   163.62454   230.75753     4.43740   163.62454   219.24247     4.43740
    11.40000   163.49029   230.75477     4.43723   163.49029   219.24523     4.43723
    11.50000   163.31108   230.75073     4.43700   163.31108   219.24927     4.43700
    11.60000   163.17656   230.74789     4.43683   163.17656   219.25211     4.43683
    11.70000   163.04191   230.74502     4.43665   163.04191   219.25498     4.43665
    11.80000   162.90714   230.74212     4.43647   162.90714   219.25788     4.43647
    11.90000   162.72724   230.73791     4.43624   162.72724   219.26209     4.43624
    12.00000   162.59218   230.73493     4.43606   162.59218   219.26507     4.43606
    12.10000   162.45701   230.73192     4.43588   162.45701   219.26808     4.43588
    12.20000   162.27655   230.72757     4.43564   162.27655   219.27243     4.43564
    12.30000   162.14108   230.72448     4.43545   162.14108   219.27552     4.43545
    12.40000   162.00548   230.72135     4.43527   162.00548   219.27865     4.43527
    12.50000   161.86975   230.71819     4.43508   161.86975   219.28181     4.43508
    12.60000   161.68856   230.71366     4.43483   161.68856   219.28634     4.43483
    12.70000   161.55253   230.71042     4.43464   161.55253   219.28958     4.43464
    12.80000   161.41637   230.70715     4.43445   161.41637   219.29285     4.43445
    12.90000   161.23460   230.70248     4.43420   161.23460   219.29752     4.43420
    13.00000   161.09813   230.69912     4.43401   161.09813   219.30088     4.43401
    13.10000   160.96152   230.69573     4.43381   160.96152   219.30427     4.43381
    13.20000   160.82478   230.69230     4.43362   160.82478   219.30770     4.43362
    13.30000   160.64224   230.68744     4.43336   160.64224   219.31256     4.43336
    13.40000   160.50518   230.68393     4.43316   160.50518   219.31607     4.43316
    13.50000   160.36797   230.68039     4.43296   160.36797   219.31961     4.43296
    13.60000   160.23063   230.67680     4.43276   160.23063   219.32320     4.43276
    13.70000   160.04729   230.67174     4.43249   160.04729   219.32826     4.43249
    13.80000   159.90962   230.66808     4.43229   159.90962   219.33192     4.43229
    13.90000   159.77181   230.66437     4.43208   159.77181   219.33563     4.43208
    14.00000   159.63385   230.66062     4.43188   159.63385   219.33938     4.43188
    14.10000   159.44969   230.65537     4.43161   159.44969   219.34463     4.43161
    14.20000   159.31140   230.65154     4.43140   159.31140   219.34846     4.43140
    14.30000   159.17295   230.64767     4.43119   159.17295   219.35233     4.43119
    14.40000   159.03436   230.64376     4.43098   159.03436   219.35624     4.43098
    14.50000   158.84936   230.63830     4.43070   158.84936   219.36170     4.43070
    14.60000   158.71042   230.63430     4.43048   158.71042   219.36570     4.43048
    14.70000   158.57133   230.63026     4.43027   158.57133   219.36974     4.43027
    14.80000   158.43209   230.62619     4.43005   158.43209   219.37381     4.43005
    14.90000   158.24622   230.62051     4.42977   158.24622   219.37949     4.42977
    15.00000   158.10662   230.61635     4.42955   158.10662   219.38365     4.42955
    15.10000   157.96687   230.61214     4.42933   157.96687   219.38786     4.42933
    15.20000   157.82696   230.60790     4.42911   157.82696   219.39210     4.42911
    15.30000   157.68690   230.60361     4.42889   157.68690   219.39639     4.42889
    15.40000   157.49992   230.59767     4.42860   157.49992   219.40233     4.42860
    15.50000   157.35949   230.59329     4.42837   157.35949   219.40671     4.42837
    15.60000   157.21890   230.58887     4.42815   157.21890   219.41113     4.42815
    15.70000   157.07814   230.58441     4.42792   157.07814   219.41559     4.42792
    15.80000   156.93723   230.57990     4.42769   156.93723   219.42010     4.42769
    15.90000   156.74912   230.57368     4.42739   156.74912   219.42632     4.42739
    16.00000   156.60782   230.56908     4.42716   156.60782   219.43092     4.42716
    16.10000   156.46636   230.56444     4.42693   156.46636   219.43556     4.42693
    16.20000   156.32474   230.55976     4.42670   156.32474   219.44024     4.42670
    16.30000   156.18294   230.55503     4.42646   156.18294   219.44497     4.42646
    16.40000   155.99366   230.54853     4.42616   155.99366   219.45147     4.42616
    16.50000   155.85148   230.54370     4.42592   155.85148   219.45630     4.42592
    16.60000   155.70912   230.53884     4.42568   155.70912   219.46116     4.42568
    16.70000   155.56660   230.53393     4.42545   155.56660   219.46607     4.42545
    16.80000   155.42390   230.52897     4.42521   155.42390   219.47103     4.42521
    16.90000   155.23342   230.52217     4.42489   155.23342   219.47783     4.42489
    17.00000   155.09032   230.51712     4.42465   155.09032   219.48288     4.42465
    17.10000   154.94704   230.51202     4.42441   154.94704   219.48798     4.42441
    17.20000   154.80359   230.50687     4.42417   154.80359   219.49313     4.42417
    17.30000   154.65996   230.50169     4.42392   154.65996   219.49831     4.42392
    17.40000   154.51616   230.49645     4.42367   154.51616   219.50355     4.42367
    17.50000   154.32420   230.48929     4.42335   154.32420   219.51071     4.42335
    17.60000   154.17997   230.48396     4.42310   154.17997   219.51604     4.42310
    17.70000   154.03557   230.47858     4.42285   154.03557   219.52142     4.42285
    17.80000   153.89099   230.47315     4.42260   153.89099   219.52685     4.42260
    17.90000   153.74622   230.46767     4.42235   153.74622   219.53233     4.42235
    18.00000   153.60127   230.46215     4.42210   153.60127   219.53785     4.42210
    18.10000   153.40778   230.45462     4.42177   153.40778   219.54538     4.42177
    18.20000   153.26240   230.44900     4.42152   153.26240   219.55100     4.42152
    18.30000   153.11683   230.44332     4.42126   153.11683   219.55668     4.42126
    18.40000   152.97108   230.43760     4.42100   152.97108   219.56240     4.42100
    18.50000   152.82513   230.43184     4.42075   152.82513   219.56816     4.42075
    18.60000   152.67900   230.42602     4.42049   152.67900   219.57398     4.42049
    18.70000   152.53267   230.42016     4.42023   152.53267   219.57984     4.42023
    18.80000   152.38616   230.41425     4.41997   152.38616   219.58575     4.41997
    18.90000   152.19059   230.40621     4.41963   152.19059   219.59379     4.41963
    19.00000   152.04362   230.40019     4.41936   152.04362   219.59981     4.41936
    19.10000   151.89646   230.39412     4.41910   151.89646   219.60588     4.41910
    19.20000   151.74911   230.38801     4.41883   151.74911   219.61199     4.41883
    19.30000   151.60156   230.38184     4.41857   151.60156   219.61816     4.41857
    19.40000   151.45381   230.37563     4.41830   151.45381   219.62437     4.41830
    19.50000   151.30586   230.36936     4.41804   151.30586   219.63064     4.41804
    19.60000   151.15772   230.36305     4.41777   151.15772   219.63695     4.41777
    19.70000   151.00937   230.35668     4.41750   151.00937   219.64332     4.41750
    19.80000   150.81136   230.34806     4.41714   150.81136   219.65194     4.41714
    19.90000   150.66255   230.34159     4.41687   150.66255   219.65841     4.41687
    20.00000   150.51353   230.33506     4.41660   150.51353   219.66494     4.41660
    20.10000   150.36430   230.32848     4.41633   150.36430   219.67152     4.41633
    20.20000   150.21487   230.32185     4.41605   150.21487   219.67815     4.41605
    20.30000   150.06524   230.31518     4.41578   150.06524   219.68482     4.41578
    20.40000   149.91540   230.30845     4.41550   149.91540   219.69155     4.41550
    20.50000   149.76535   230.30167     4.41522   149.76535   219.69833     4.41522
    20.60000   149.61509   230.29484     4.41494   149.61509   219.70516     4.41494
    20.70000   149.46462   230.28795     4.41467   149.46462   219.71205     4.41467
    20.80000   149.31394   230.28102     4.41439   149.31394   219.71898     4.41439
    20.90000   149.16305   230.27403     4.41410   149.16305   219.72597     4.41410
    21.00000   149.01194   230.26700     4.41382   149.01194   219.73300     4.41382
    21.10000   148.81026   230.25750     4.41345   148.81026   219.74250     4.41345
    21.20000   148.65865   230.25034     4.41317   148.65865   219.74966     4.41317
    21.30000   148.50683   230.24313     4.41288   148.50683   219.75687     4.41288
    21.40000   148.35479   230.23587     4.41260   148.35479   219.76413     4.41260
    21.50000   148.20254   230.22856     4.41231   148.20254   219.77144     4.41231
    21.60000   148.05006   230.22119     4.41202   148.05006   219.77881     4.41202
    21.70000   147.89737   230.21377     4.41174   147.89737   219.78623     4.41174
    21.80000   147.74445   230.20630     4.41145   147.74445   219.79370     4.41145
    21.90000   147.59131   230.19878     4.41116   147.59131   219.80122     4.41116
    22.00000   147.43795   230.19120     4.41087   147.43795   219.80880     4.41087
    22.10000   147.28436   230.18357     4.41057   147.28436   219.81643     4.41057
    22.20000   147.13055   230.17588     4.41028   147.13055   219.82412     4.41028
    22.30000   146.97651   230.16814     4.40999   146.97651   219.83186     4.40999
    22.40000   146.82225   230.16035     4.40969   146.82225   219.83965     4.40969
    22.50000   146.66775   230.15250     4.40940   146.66775   219.84750     4.40940
    22.60000   146.51303   230.14460     4.40910   146.51303   219.85540     4.40910
    22.70000   146.35808   230.13665     4.40880   146.35808   219.86335     4.40880
    22.80000   146.20289   230.12864     4.40850   146.20289   219.87136     4.40850
    22.90000   146.04748   230.12058     4.40821   146.04748   219.87942     4.40821
    23.00000   145.89183   230.11246     4.40791   145.89183   219.88754     4.40791
    23.10000   145.73594   230.10429     4.40760   145.73594   219.89571     4.40760
    23.20000   145.57982   230.09606     4.40730   145.57982   219.90394     4.40730
    23.30000   145.42347   230.08778     4.40700   145.42347   219.91222     4.40700
