 # applied field (T), theta (degree), phi (degree), abs [muB/unitcell], abs [T]
       0.00000000       0.00000000       0.00000000      42.23677200       1.42161941
       0.10000000       0.39915510     360.00000000      42.23677722       1.42161958
       0.20000000       0.79831239     360.00000000      42.23679287       1.42162011
       0.30000000       1.19747403     360.00000000      42.23681895       1.42162099
       0.40000000       1.59664222     360.00000000      42.23685547       1.42162222
       0.50000000       1.99581914     360.00000000      42.23690242       1.42162380
       0.60000000       2.39500695     360.00000000      42.23695981       1.42162573
       0.70000000       2.85112719     360.00000000      42.23703730       1.42162834
       0.80000000       3.25034570     360.00000000      42.23711692       1.42163102
       0.90000000       3.64958193     360.00000000      42.23720699       1.42163405
       1.00000000      90.00000000     360.00000000      42.24312913       1.42183338
       1.10000000      90.00000000     360.00000000      42.24316827       1.42183470
       1.20000000      90.00000000     360.00000000      42.24320741       1.42183601
       1.30000000      90.00000000     360.00000000      42.24324656       1.42183733
       1.40000000      90.00000000     360.00000000      42.24328571       1.42183865
       1.50000000      90.00000000     360.00000000      42.24332487       1.42183997
       1.60000000      90.00000000     360.00000000      42.24336403       1.42184128
       1.70000000      90.00000000     360.00000000      42.24340319       1.42184260
       1.80000000      90.00000000     360.00000000      42.24344236       1.42184392
       1.90000000      90.00000000     360.00000000      42.24348154       1.42184524
       2.00000000      90.00000000     360.00000000      42.24352072       1.42184656
       2.10000000      90.00000000     360.00000000      42.24355990       1.42184788
       2.20000000      90.00000000     360.00000000      42.24359909       1.42184920
       2.30000000      90.00000000     360.00000000      42.24363828       1.42185052
       2.40000000      90.00000000     360.00000000      42.24367748       1.42185183
       2.50000000      90.00000000     360.00000000      42.24371668       1.42185315
       2.60000000      90.00000000     360.00000000      42.24375589       1.42185447
       2.70000000      90.00000000     360.00000000      42.24379510       1.42185579
       2.80000000      90.00000000     360.00000000      42.24383432       1.42185711
       2.90000000      90.00000000     360.00000000      42.24387354       1.42185843
       3.00000000      90.00000000     360.00000000      42.24391276       1.42185975
       3.10000000      90.00000000     360.00000000      42.24395199       1.42186107
       3.20000000      90.00000000     360.00000000      42.24399123       1.42186240
       3.30000000      90.00000000     360.00000000      42.24403047       1.42186372
       3.40000000      90.00000000     360.00000000      42.24406971       1.42186504
       3.50000000      90.00000000     360.00000000      42.24410896       1.42186636
       3.60000000      90.00000000     360.00000000      42.24414822       1.42186768
       3.70000000      90.00000000     360.00000000      42.24418747       1.42186900
       3.80000000      90.00000000     360.00000000      42.24422674       1.42187032
       3.90000000      90.00000000     360.00000000      42.24426601       1.42187164
       4.00000000      90.00000000     360.00000000      42.24430528       1.42187297
       4.10000000      90.00000000     360.00000000      42.24434455       1.42187429
       4.20000000      90.00000000     360.00000000      42.24438384       1.42187561
       4.30000000      90.00000000     360.00000000      42.24442312       1.42187693
       4.40000000      90.00000000     360.00000000      42.24446241       1.42187825
       4.50000000      90.00000000     360.00000000      42.24450171       1.42187958
       4.60000000      90.00000000     360.00000000      42.24454101       1.42188090
       4.70000000      90.00000000     360.00000000      42.24458031       1.42188222
       4.80000000      90.00000000     360.00000000      42.24461962       1.42188355
       4.90000000      90.00000000     360.00000000      42.24465894       1.42188487
       5.00000000      90.00000000     360.00000000      42.24469826       1.42188619
       5.10000000      90.00000000     360.00000000      42.24473758       1.42188752
       5.20000000      90.00000000     360.00000000      42.24477691       1.42188884
       5.30000000      90.00000000     360.00000000      42.24481624       1.42189016
       5.40000000      90.00000000     360.00000000      42.24485558       1.42189149
       5.50000000      90.00000000     360.00000000      42.24489492       1.42189281
       5.60000000      90.00000000     360.00000000      42.24493427       1.42189414
       5.70000000      90.00000000     360.00000000      42.24497362       1.42189546
       5.80000000      90.00000000     360.00000000      42.24501298       1.42189679
       5.90000000      90.00000000     360.00000000      42.24505234       1.42189811
       6.00000000      90.00000000     360.00000000      42.24509170       1.42189944
       6.10000000      90.00000000     360.00000000      42.24513107       1.42190076
       6.20000000      90.00000000     360.00000000      42.24517045       1.42190209
       6.30000000      90.00000000     360.00000000      42.24520983       1.42190341
       6.40000000      90.00000000     360.00000000      42.24524921       1.42190474
       6.50000000      90.00000000     360.00000000      42.24528860       1.42190606
       6.60000000      90.00000000     360.00000000      42.24532800       1.42190739
       6.70000000      90.00000000     360.00000000      42.24536740       1.42190871
       6.80000000      90.00000000     360.00000000      42.24540680       1.42191004
       6.90000000      90.00000000     360.00000000      42.24544621       1.42191137
       7.00000000      90.00000000     360.00000000      42.24548562       1.42191269
       7.10000000      90.00000000     360.00000000      42.24552504       1.42191402
       7.20000000      90.00000000     360.00000000      42.24556446       1.42191535
       7.30000000      90.00000000     360.00000000      42.24560389       1.42191667
       7.40000000      90.00000000     360.00000000      42.24564332       1.42191800
       7.50000000      90.00000000     360.00000000      42.24568275       1.42191933
       7.60000000      90.00000000     360.00000000      42.24572219       1.42192066
       7.70000000      90.00000000     360.00000000      42.24576164       1.42192198
       7.80000000      90.00000000     360.00000000      42.24580109       1.42192331
       7.90000000      90.00000000     360.00000000      42.24584054       1.42192464
       8.00000000      90.00000000     360.00000000      42.24588000       1.42192597
       8.10000000      90.00000000     360.00000000      42.24591947       1.42192730
       8.20000000      90.00000000     360.00000000      42.24595894       1.42192862
       8.30000000      90.00000000     360.00000000      42.24599841       1.42192995
       8.40000000      90.00000000     360.00000000      42.24603789       1.42193128
       8.50000000      90.00000000     360.00000000      42.24607737       1.42193261
       8.60000000      90.00000000     360.00000000      42.24611686       1.42193394
       8.70000000      90.00000000     360.00000000      42.24615635       1.42193527
       8.80000000      90.00000000     360.00000000      42.24619585       1.42193660
       8.90000000      90.00000000     360.00000000      42.24623535       1.42193793
       9.00000000      90.00000000     360.00000000      42.24627486       1.42193926
       9.10000000      90.00000000     360.00000000      42.24631437       1.42194059
       9.20000000      90.00000000     360.00000000      42.24635389       1.42194192
       9.30000000      90.00000000     360.00000000      42.24639341       1.42194325
       9.40000000      90.00000000     360.00000000      42.24643293       1.42194458
       9.50000000      90.00000000     360.00000000      42.24647246       1.42194591
       9.60000000      90.00000000     360.00000000      42.24651200       1.42194724
       9.70000000      90.00000000     360.00000000      42.24655154       1.42194857
       9.80000000      90.00000000     360.00000000      42.24659108       1.42194990
       9.90000000      90.00000000     360.00000000      42.24663063       1.42195123
      10.00000000      90.00000000     360.00000000      42.24667018       1.42195256
      10.10000000      90.00000000     360.00000000      42.24670974       1.42195390
      10.20000000      90.00000000     360.00000000      42.24674931       1.42195523
      10.30000000      90.00000000     360.00000000      42.24678887       1.42195656
      10.40000000      90.00000000     360.00000000      42.24682845       1.42195789
      10.50000000      90.00000000     360.00000000      42.24686802       1.42195922
      10.60000000      90.00000000     360.00000000      42.24690761       1.42196056
      10.70000000      90.00000000     360.00000000      42.24694719       1.42196189
      10.80000000      90.00000000     360.00000000      42.24698678       1.42196322
      10.90000000      90.00000000     360.00000000      42.24702638       1.42196455
      11.00000000      90.00000000     360.00000000      42.24706598       1.42196589
      11.10000000      90.00000000     360.00000000      42.24710559       1.42196722
      11.20000000      90.00000000     360.00000000      42.24714520       1.42196855
      11.30000000      90.00000000     360.00000000      42.24718481       1.42196989
      11.40000000      90.00000000     360.00000000      42.24722443       1.42197122
      11.50000000      90.00000000     360.00000000      42.24726406       1.42197255
      11.60000000      90.00000000     360.00000000      42.24730369       1.42197389
      11.70000000      90.00000000     360.00000000      42.24734332       1.42197522
      11.80000000      90.00000000     360.00000000      42.24738296       1.42197656
      11.90000000      90.00000000     360.00000000      42.24742260       1.42197789
      12.00000000      90.00000000     360.00000000      42.24746225       1.42197922
      12.10000000      90.00000000     360.00000000      42.24750190       1.42198056
      12.20000000      90.00000000     360.00000000      42.24754156       1.42198189
      12.30000000      90.00000000     360.00000000      42.24758122       1.42198323
      12.40000000      90.00000000     360.00000000      42.24762089       1.42198456
      12.50000000      90.00000000     360.00000000      42.24766056       1.42198590
      12.60000000      90.00000000     360.00000000      42.24770024       1.42198723
      12.70000000      90.00000000     360.00000000      42.24773992       1.42198857
      12.80000000      90.00000000     360.00000000      42.24777961       1.42198991
      12.90000000      90.00000000     360.00000000      42.24781930       1.42199124
      13.00000000      90.00000000     360.00000000      42.24785899       1.42199258
      13.10000000      90.00000000     360.00000000      42.24789869       1.42199391
      13.20000000      90.00000000     360.00000000      42.24793840       1.42199525
      13.30000000      90.00000000     360.00000000      42.24797811       1.42199659
      13.40000000      90.00000000     360.00000000      42.24801782       1.42199792
      13.50000000      90.00000000     360.00000000      42.24805754       1.42199926
      13.60000000      90.00000000     360.00000000      42.24809727       1.42200060
      13.70000000      90.00000000     360.00000000      42.24813699       1.42200193
      13.80000000      90.00000000     360.00000000      42.24817673       1.42200327
      13.90000000      90.00000000     360.00000000      42.24821647       1.42200461
      14.00000000      90.00000000     360.00000000      42.24825621       1.42200595
      14.10000000      90.00000000     360.00000000      42.24829596       1.42200729
      14.20000000      90.00000000     360.00000000      42.24833571       1.42200862
      14.30000000      90.00000000     360.00000000      42.24837547       1.42200996
      14.40000000      90.00000000     360.00000000      42.24841523       1.42201130
      14.50000000      90.00000000     360.00000000      42.24845500       1.42201264
      14.60000000      90.00000000     360.00000000      42.24849477       1.42201398
      14.70000000      90.00000000     360.00000000      42.24853454       1.42201532
      14.80000000      90.00000000     360.00000000      42.24857432       1.42201665
      14.90000000      90.00000000     360.00000000      42.24861411       1.42201799
      15.00000000      90.00000000     360.00000000      42.24865390       1.42201933
      15.10000000      90.00000000     360.00000000      42.24869370       1.42202067
      15.20000000      90.00000000     360.00000000      42.24873350       1.42202201
      15.30000000      90.00000000     360.00000000      42.24877330       1.42202335
      15.40000000      90.00000000     360.00000000      42.24881311       1.42202469
      15.50000000      90.00000000     360.00000000      42.24885292       1.42202603
      15.60000000      90.00000000     360.00000000      42.24889274       1.42202737
      15.70000000      90.00000000     360.00000000      42.24893257       1.42202871
      15.80000000      90.00000000     360.00000000      42.24897240       1.42203005
      15.90000000      90.00000000     360.00000000      42.24901223       1.42203139
      16.00000000      90.00000000     360.00000000      42.24905207       1.42203273
      16.10000000      90.00000000     360.00000000      42.24909191       1.42203408
      16.20000000      90.00000000     360.00000000      42.24913176       1.42203542
      16.30000000      90.00000000     360.00000000      42.24917161       1.42203676
      16.40000000      90.00000000     360.00000000      42.24921147       1.42203810
      16.50000000      90.00000000     360.00000000      42.24925133       1.42203944
      16.60000000      90.00000000     360.00000000      42.24929120       1.42204078
      16.70000000      90.00000000     360.00000000      42.24933107       1.42204213
      16.80000000      90.00000000     360.00000000      42.24937094       1.42204347
      16.90000000      90.00000000     360.00000000      42.24941082       1.42204481
      17.00000000      90.00000000     360.00000000      42.24945071       1.42204615
      17.10000000      90.00000000     360.00000000      42.24949060       1.42204749
      17.20000000      90.00000000     360.00000000      42.24953050       1.42204884
      17.30000000      90.00000000     360.00000000      42.24957040       1.42205018
      17.40000000      90.00000000     360.00000000      42.24961030       1.42205152
      17.50000000      90.00000000     360.00000000      42.24965021       1.42205287
      17.60000000      90.00000000     360.00000000      42.24969013       1.42205421
      17.70000000      90.00000000     360.00000000      42.24973004       1.42205555
      17.80000000      90.00000000     360.00000000      42.24976997       1.42205690
      17.90000000      90.00000000     360.00000000      42.24980990       1.42205824
      18.00000000      90.00000000     360.00000000      42.24984983       1.42205959
      18.10000000      90.00000000     360.00000000      42.24988977       1.42206093
      18.20000000      90.00000000     360.00000000      42.24992971       1.42206227
      18.30000000      90.00000000     360.00000000      42.24996966       1.42206362
      18.40000000      90.00000000     360.00000000      42.25000961       1.42206496
      18.50000000      90.00000000     360.00000000      42.25004957       1.42206631
      18.60000000      90.00000000     360.00000000      42.25008953       1.42206765
      18.70000000      90.00000000     360.00000000      42.25012950       1.42206900
      18.80000000      90.00000000     360.00000000      42.25016947       1.42207034
      18.90000000      90.00000000     360.00000000      42.25020945       1.42207169
      19.00000000      90.00000000     360.00000000      42.25024943       1.42207304
      19.10000000      90.00000000     360.00000000      42.25028942       1.42207438
      19.20000000      90.00000000     360.00000000      42.25032941       1.42207573
      19.30000000      90.00000000     360.00000000      42.25036940       1.42207707
      19.40000000      90.00000000     360.00000000      42.25040940       1.42207842
      19.50000000      90.00000000     360.00000000      42.25044941       1.42207977
      19.60000000      90.00000000     360.00000000      42.25048942       1.42208111
      19.70000000      90.00000000     360.00000000      42.25052943       1.42208246
      19.80000000      90.00000000     360.00000000      42.25056945       1.42208381
      19.90000000      90.00000000     360.00000000      42.25060948       1.42208515
      20.00000000      90.00000000     360.00000000      42.25064951       1.42208650
      20.10000000      90.00000000     360.00000000      42.25068954       1.42208785
      20.20000000      90.00000000     360.00000000      42.25072958       1.42208920
      20.30000000      90.00000000     360.00000000      42.25076963       1.42209054
      20.40000000      90.00000000     360.00000000      42.25080967       1.42209189
      20.50000000      90.00000000     360.00000000      42.25084973       1.42209324
      20.60000000      90.00000000     360.00000000      42.25088979       1.42209459
      20.70000000      90.00000000     360.00000000      42.25092985       1.42209594
      20.80000000      90.00000000     360.00000000      42.25096992       1.42209729
      20.90000000      90.00000000     360.00000000      42.25100999       1.42209863
      21.00000000      90.00000000     360.00000000      42.25105007       1.42209998
      21.10000000      90.00000000     360.00000000      42.25109015       1.42210133
      21.20000000      90.00000000     360.00000000      42.25113024       1.42210268
      21.30000000      90.00000000     360.00000000      42.25117033       1.42210403
      21.40000000      90.00000000     360.00000000      42.25121042       1.42210538
      21.50000000      90.00000000     360.00000000      42.25125053       1.42210673
      21.60000000      90.00000000     360.00000000      42.25129063       1.42210808
      21.70000000      90.00000000     360.00000000      42.25133074       1.42210943
      21.80000000      90.00000000     360.00000000      42.25137086       1.42211078
      21.90000000      90.00000000     360.00000000      42.25141098       1.42211213
      22.00000000      90.00000000     360.00000000      42.25145110       1.42211348
      22.10000000      90.00000000     360.00000000      42.25149124       1.42211483
      22.20000000      90.00000000     360.00000000      42.25153137       1.42211618
      22.30000000      90.00000000     360.00000000      42.25157151       1.42211753
      22.40000000      90.00000000     360.00000000      42.25161166       1.42211889
      22.50000000      90.00000000     360.00000000      42.25165180       1.42212024
      22.60000000      90.00000000     360.00000000      42.25169196       1.42212159
      22.70000000      90.00000000     360.00000000      42.25173212       1.42212294
      22.80000000      90.00000000     360.00000000      42.25177228       1.42212429
      22.90000000      90.00000000     360.00000000      42.25181245       1.42212564
      23.00000000      90.00000000     360.00000000      42.25185262       1.42212700
