 # applied field (T), theta (degree), phi (degree), abs for RE 3-4
     0.00000     0.00000     0.00000     4.71935     0.00000     0.00000     4.71935
     0.10000     0.10067   360.00000     4.71935     0.13393   360.00000     4.71935
     0.20000     0.23405   360.00000     4.71935     0.31142   360.00000     4.71935
     0.30000     0.33472   360.00000     4.71935     0.44535   360.00000     4.71935
     0.40000     0.46812   360.00000     4.71934     0.62285   360.00000     4.71935
     0.50000     0.56880   360.00000     4.71934     0.75678   360.00000     4.71934
     0.60000     0.66949   360.00000     4.71933     0.89071   360.00000     4.71934
     0.70000     0.80292   360.00000     4.71933     1.06821   360.00000     4.71934
     0.80000     0.90364   360.00000     4.71932     1.20215   360.00000     4.71933
     0.90000     1.03710   360.00000     4.71931     1.37967   360.00000     4.71933
     1.00000     1.13785   360.00000     4.71931     1.51361   360.00000     4.71932
     1.10000     1.23861   360.00000     4.71930     1.64756   360.00000     4.71932
     1.20000     1.37214   360.00000     4.71928     1.82510   360.00000     4.71931
     1.30000     1.47295   360.00000     4.71927     1.95906   360.00000     4.71930
     1.40000     1.57377   360.00000     4.71926     2.09302   360.00000     4.71930
     1.50000     1.70739   360.00000     4.71925     2.27058   360.00000     4.71929
     1.60000     1.80827   360.00000     4.71924     2.40455   360.00000     4.71928
     1.70000     1.94196   360.00000     4.71922     2.58213   360.00000     4.71927
     1.80000     2.04290   360.00000     4.71921     2.71612   360.00000     4.71926
     1.90000     2.14386   360.00000     4.71919     2.85012   360.00000     4.71925
     2.00000     2.27768   360.00000     4.71917     3.02772   360.00000     4.71924
     2.10000     2.37871   360.00000     4.71915     3.16174   360.00000     4.71923
     2.20000     2.51263   360.00000     4.71913     3.33937   360.00000     4.71921
     2.30000     2.61374   360.00000     4.71911     3.47340   360.00000     4.71920
     2.40000     2.71489   360.00000     4.71910     3.60745   360.00000     4.71919
     2.50000     2.84896   360.00000     4.71907     3.78511   360.00000     4.71917
     2.60000     2.95020   360.00000     4.71905     3.91918   360.00000     4.71916
     2.70000     3.08439   360.00000     4.71902     4.09688   360.00000     4.71914
     2.80000     3.18573   360.00000     4.71900     4.23097   360.00000     4.71913
     2.90000     3.28710   360.00000     4.71898     4.36507   360.00000     4.71912
     3.00000     3.42149   360.00000     4.71895     4.54281   360.00000     4.71910
     3.10000     3.52297   360.00000     4.71892     4.67694   360.00000     4.71908
     3.20000     3.62451   360.00000     4.71890     4.81108   360.00000     4.71906
     3.30000     3.75911   360.00000     4.71886     4.98888   360.00000     4.71904
     3.40000     3.86076   360.00000     4.71884     5.12305   360.00000     4.71903
     3.50000     3.99552   360.00000     4.71880     5.30088   360.00000     4.71900
     3.60000     4.09730   360.00000     4.71877     5.43508   360.00000     4.71899
     3.70000     4.19913   360.00000     4.71874     5.56929   360.00000     4.71897
     3.80000     4.33415   360.00000     4.71870     5.74719   360.00000     4.71894
     3.90000     4.43612   360.00000     4.71867     5.88144   360.00000     4.71893
     4.00000     4.53815   360.00000     4.71864     6.01569   360.00000     4.71891
     4.10000     4.67343   360.00000     4.71860     6.19366   360.00000     4.71888
     4.20000     4.77561   360.00000     4.71856     6.32795   360.00000     4.71886
     4.30000     4.87786   360.00000     4.71853     6.46226   360.00000     4.71884
     4.40000     5.01343   360.00000     4.71848     6.64030   360.00000     4.71881
     4.50000     5.11584   360.00000     4.71845     6.77465   360.00000     4.71879
     4.60000     5.25163   360.00000     4.71840     6.95274   360.00000     4.71876
     4.70000     5.35420   360.00000     4.71836     7.08712   360.00000     4.71873
     4.80000     5.45685   360.00000     4.71833     7.22153   360.00000     4.71871
     4.90000     5.59297   360.00000     4.71827     7.39970   360.00000     4.71868
     5.00000     5.69580   360.00000     4.71823     7.53415   360.00000     4.71866
     5.10000     5.79871   360.00000     4.71819     7.66861   360.00000     4.71863
     5.20000     5.93518   360.00000     4.71814     7.84686   360.00000     4.71860
     5.30000     6.03828   360.00000     4.71810     7.98138   360.00000     4.71857
     5.40000     6.14146   360.00000     4.71805     8.11591   360.00000     4.71855
     5.50000     6.27830   360.00000     4.71800     8.29425   360.00000     4.71851
     5.60000     6.38169   360.00000     4.71795     8.42883   360.00000     4.71848
     5.70000     6.48516   360.00000     4.71791     8.56343   360.00000     4.71846
     5.80000     6.62241   360.00000     4.71785     8.74186   360.00000     4.71842
     5.90000     6.72609   360.00000     4.71780     8.87651   360.00000     4.71839
     6.00000     6.82988   360.00000     4.71775     9.01118   360.00000     4.71836
     6.10000     6.96754   360.00000     4.71769     9.18971   360.00000     4.71832
     6.20000     7.07155   360.00000     4.71764     9.32444   360.00000     4.71829
     6.30000     7.17566   360.00000     4.71759     9.45919   360.00000     4.71826
     6.40000     7.31376   360.00000     4.71752     9.63782   360.00000     4.71822
     6.50000     7.41811   360.00000     4.71747     9.77262   360.00000     4.71819
     6.60000     7.52257   360.00000     4.71741     9.90745   360.00000     4.71816
     6.70000     7.66113   360.00000     4.71734    10.08619   360.00000     4.71812
     6.80000     7.76584   360.00000     4.71729    10.22107   360.00000     4.71808
     6.90000     7.87066   360.00000     4.71723    10.35598   360.00000     4.71805
     7.00000     8.00971   360.00000     4.71716    10.53483   360.00000     4.71801
     7.10000     8.11479   360.00000     4.71710    10.66980   360.00000     4.71797
     7.20000     8.21999   360.00000     4.71704    10.80480   360.00000     4.71794
     7.30000     8.35955   360.00000     4.71696    10.98376   360.00000     4.71789
     7.40000     8.46503   360.00000     4.71690    11.11882   360.00000     4.71786
     7.50000     8.57062   360.00000     4.71684    11.25391   360.00000     4.71782
     7.60000     8.67634   360.00000     4.71678    11.38902   360.00000     4.71778
     7.70000     8.81661   360.00000     4.71670    11.56814   360.00000     4.71774
     7.80000     8.92263   360.00000     4.71663    11.70332   360.00000     4.71770
     7.90000     9.02877   360.00000     4.71657    11.83853   360.00000     4.71766
     8.00000     9.16961   360.00000     4.71649    12.01778   360.00000     4.71761
     8.10000     9.27606   360.00000     4.71642    12.15305   360.00000     4.71757
     8.20000     9.38264   360.00000     4.71635    12.28836   360.00000     4.71753
     8.30000     9.48936   360.00000     4.71628    12.42369   360.00000     4.71749
     8.40000     9.63097   360.00000     4.71619    12.60312   360.00000     4.71744
     8.50000     9.73802   360.00000     4.71612    12.73852   360.00000     4.71740
     8.60000     9.84521   360.00000     4.71605    12.87396   360.00000     4.71736
     8.70000     9.98745   360.00000     4.71596    13.05352   360.00000     4.71731
     8.80000    10.09498   360.00000     4.71589    13.18903   360.00000     4.71727
     8.90000    10.20265   360.00000     4.71581    13.32457   360.00000     4.71722
     9.00000    10.31047   360.00000     4.71574    13.46014   360.00000     4.71718
     9.10000    10.45357   360.00000     4.71564    13.63989   360.00000     4.71713
     9.20000    10.56175   360.00000     4.71557    13.77554   360.00000     4.71708
     9.30000    10.67009   360.00000     4.71549    13.91122   360.00000     4.71704
     9.40000    10.77858   360.00000     4.71541    14.04694   360.00000     4.71699
     9.50000    10.92258   360.00000     4.71531    14.22688   360.00000     4.71694
     9.60000    11.03145   360.00000     4.71523    14.36268   360.00000     4.71689
     9.70000    11.14049   360.00000     4.71515    14.49851   360.00000     4.71685
     9.80000    11.24969   360.00000     4.71507    14.63437   360.00000     4.71680
     9.90000    11.39463   360.00000     4.71496    14.81452   360.00000     4.71674
    10.00000    11.50423   360.00000     4.71488    14.95047   360.00000     4.71669
    10.10000    11.61399   360.00000     4.71479    15.08645   360.00000     4.71665
    10.20000    11.72393   360.00000     4.71471    15.22247   360.00000     4.71660
    10.30000    11.86987   360.00000     4.71460    15.40283   360.00000     4.71654
    10.40000    11.98023   360.00000     4.71451    15.53893   360.00000     4.71649
    10.50000    12.09076   360.00000     4.71442    15.67508   360.00000     4.71644
    10.60000    12.20148   360.00000     4.71433    15.81126   360.00000     4.71639
    10.70000    12.31238   360.00000     4.71424    15.94748   360.00000     4.71634
    10.80000    12.45962   360.00000     4.71412    16.12810   360.00000     4.71627
    10.90000    12.57096   360.00000     4.71403    16.26441   360.00000     4.71622
    11.00000    12.68249   360.00000     4.71394    16.40076   360.00000     4.71617
    11.10000    12.79422   360.00000     4.71385    16.53715   360.00000     4.71612
    11.20000    12.90614   360.00000     4.71375    16.67357   360.00000     4.71607
    11.30000    13.05474   360.00000     4.71363    16.85448   360.00000     4.71600
    11.40000    13.16713   360.00000     4.71353    16.99100   360.00000     4.71595
    11.50000    13.27972   360.00000     4.71343    17.12757   360.00000     4.71590
    11.60000    13.39251   360.00000     4.71334    17.26417   360.00000     4.71584
    11.70000    13.50551   360.00000     4.71324    17.40081   360.00000     4.71579
    11.80000    13.65556   360.00000     4.71311    17.58202   360.00000     4.71572
    11.90000    13.76905   360.00000     4.71300    17.71876   360.00000     4.71567
    12.00000    13.88275   360.00000     4.71290    17.85555   360.00000     4.71561
    12.10000    13.99667   360.00000     4.71280    17.99237   360.00000     4.71556
    12.20000    14.11081   360.00000     4.71270    18.12925   360.00000     4.71550
    12.30000    14.26238   360.00000     4.71256    18.31076   360.00000     4.71543
    12.40000    14.37704   360.00000     4.71245    18.44773   360.00000     4.71537
    12.50000    14.49192   360.00000     4.71234    18.58475   360.00000     4.71531
    12.60000    14.60703   360.00000     4.71224    18.72181   360.00000     4.71526
    12.70000    14.72237   360.00000     4.71213    18.85892   360.00000     4.71520
    12.80000    14.83794   360.00000     4.71202    18.99608   360.00000     4.71514
    12.90000    14.95374   360.00000     4.71191    19.13328   360.00000     4.71508
    13.00000    15.10756   360.00000     4.71176    19.31523   360.00000     4.71501
    13.10000    15.22392   360.00000     4.71165    19.45254   360.00000     4.71495
    13.20000    15.34052   360.00000     4.71153    19.58990   360.00000     4.71489
    13.30000    15.45737   360.00000     4.71142    19.72730   360.00000     4.71483
    13.40000    15.57447   360.00000     4.71130    19.86476   360.00000     4.71477
    13.50000    15.69182   360.00000     4.71118    20.00226   360.00000     4.71471
    13.60000    15.80941   360.00000     4.71107    20.13980   360.00000     4.71465
    13.70000    15.96563   360.00000     4.71091    20.32223   360.00000     4.71457
    13.80000    16.08382   360.00000     4.71079    20.45989   360.00000     4.71450
    13.90000    16.20227   360.00000     4.71067    20.59761   360.00000     4.71444
    14.00000    16.32099   360.00000     4.71055    20.73537   360.00000     4.71438
    14.10000    16.43997   360.00000     4.71042    20.87319   360.00000     4.71432
    14.20000    16.55922   360.00000     4.71030    21.01105   360.00000     4.71425
    14.30000    16.67874   360.00000     4.71017    21.14897   360.00000     4.71419
    14.40000    16.79853   360.00000     4.71005    21.28694   360.00000     4.71412
    14.50000    16.91860   360.00000     4.70992    21.42496   360.00000     4.71406
    14.60000    17.03894   360.00000     4.70979    21.56304   360.00000     4.71399
    14.70000    17.19884   360.00000     4.70962    21.74617   360.00000     4.71391
    14.80000    17.31983   360.00000     4.70949    21.88437   360.00000     4.71384
    14.90000    17.44112   360.00000     4.70936    22.02262   360.00000     4.71378
    15.00000    17.56269   360.00000     4.70923    22.16093   360.00000     4.71371
    15.10000    17.68456   360.00000     4.70909    22.29930   360.00000     4.71364
    15.20000    17.80672   360.00000     4.70896    22.43771   360.00000     4.71357
    15.30000    17.92917   360.00000     4.70882    22.57619   360.00000     4.71351
    15.40000    18.05193   360.00000     4.70868    22.71472   360.00000     4.71344
    15.50000    18.17499   360.00000     4.70855    22.85331   360.00000     4.71337
    15.60000    18.29835   360.00000     4.70841    22.99195   360.00000     4.71330
    15.70000    18.42202   360.00000     4.70827    23.13066   360.00000     4.71323
    15.80000    18.54600   360.00000     4.70813    23.26942   360.00000     4.71316
    15.90000    18.67029   360.00000     4.70798    23.40824   360.00000     4.71309
    16.00000    18.79489   360.00000     4.70784    23.54712   360.00000     4.71302
    16.10000    18.91982   360.00000     4.70769    23.68606   360.00000     4.71295
    16.20000    19.04507   360.00000     4.70755    23.82505   360.00000     4.71288
    16.30000    19.21153   360.00000     4.70736    24.00944   360.00000     4.71278
    16.40000    19.33754   360.00000     4.70721    24.14858   360.00000     4.71271
    16.50000    19.46387   360.00000     4.70706    24.28779   360.00000     4.71264
    16.60000    19.59054   360.00000     4.70691    24.42705   360.00000     4.71257
    16.70000    19.71754   360.00000     4.70676    24.56638   360.00000     4.71249
    16.80000    19.84489   360.00000     4.70660    24.70577   360.00000     4.71242
    16.90000    19.97257   360.00000     4.70645    24.84523   360.00000     4.71234
    17.00000    20.10060   360.00000     4.70630    24.98475   360.00000     4.71227
    17.10000    20.22898   360.00000     4.70614    25.12434   360.00000     4.71219
    17.20000    20.35771   360.00000     4.70598    25.26399   360.00000     4.71212
    17.30000    20.48680   360.00000     4.70582    25.40371   360.00000     4.71204
    17.40000    20.61624   360.00000     4.70566    25.54349   360.00000     4.71197
    17.50000    20.74604   360.00000     4.70550    25.68335   360.00000     4.71189
    17.60000    20.87620   360.00000     4.70534    25.82327   360.00000     4.71181
    17.70000    21.00673   360.00000     4.70518    25.96325   360.00000     4.71173
    17.80000    21.13763   360.00000     4.70501    26.10331   360.00000     4.71166
    17.90000    21.26890   360.00000     4.70485    26.24344   360.00000     4.71158
    18.00000    21.40054   360.00000     4.70468    26.38364   360.00000     4.71150
    18.10000    21.53256   360.00000     4.70451    26.52391   360.00000     4.71142
    18.20000    21.66497   360.00000     4.70435    26.66425   360.00000     4.71134
    18.30000    21.79775   360.00000     4.70418    26.80466   360.00000     4.71126
    18.40000    21.93093   360.00000     4.70400    26.94515   360.00000     4.71118
    18.50000    22.06450   360.00000     4.70383    27.08571   360.00000     4.71110
    18.60000    22.19846   360.00000     4.70366    27.22635   360.00000     4.71101
    18.70000    22.28908   360.00000     4.70354    27.32118   360.00000     4.71096
    18.80000    22.42370   360.00000     4.70336    27.46194   360.00000     4.71087
    18.90000    22.55873   360.00000     4.70319    27.60277   360.00000     4.71079
    19.00000    22.69416   360.00000     4.70301    27.74369   360.00000     4.71071
    19.10000    22.83001   360.00000     4.70283    27.88468   360.00000     4.71062
    19.20000    22.96626   360.00000     4.70265    28.02575   360.00000     4.71054
    19.30000    23.10293   360.00000     4.70247    28.16689   360.00000     4.71045
    19.40000    23.24002   360.00000     4.70228    28.30812   360.00000     4.71037
    19.50000    23.37753   360.00000     4.70210    28.44943   360.00000     4.71028
    19.60000    23.51546   360.00000     4.70191    28.59082   360.00000     4.71020
    19.70000    23.65382   360.00000     4.70173    28.73229   360.00000     4.71011
    19.80000    23.79262   360.00000     4.70154    28.87385   360.00000     4.71002
    19.90000    23.93184   360.00000     4.70135    29.01549   360.00000     4.70993
    20.00000    24.07151   360.00000     4.70116    29.15721   360.00000     4.70985
    20.10000    24.21162   360.00000     4.70097    29.29902   360.00000     4.70976
    20.20000    24.35217   360.00000     4.70078    29.44092   360.00000     4.70967
    20.30000    24.49318   360.00000     4.70058    29.58290   360.00000     4.70958
    20.40000    24.58857   360.00000     4.70045    29.67863   360.00000     4.70952
    20.50000    24.73033   360.00000     4.70025    29.82076   360.00000     4.70942
    20.60000    24.87254   360.00000     4.70006    29.96298   360.00000     4.70933
    20.70000    25.01522   360.00000     4.69986    30.10529   360.00000     4.70924
    20.80000    25.15836   360.00000     4.69966    30.24769   360.00000     4.70915
    20.90000    25.30197   360.00000     4.69946    30.39018   360.00000     4.70906
    21.00000    25.44605   360.00000     4.69925    30.53277   360.00000     4.70896
    21.10000    25.59060   360.00000     4.69905    30.67545   360.00000     4.70887
    21.20000    25.73564   360.00000     4.69885    30.81823   360.00000     4.70878
    21.30000    25.88115   360.00000     4.69864    30.96110   360.00000     4.70868
    21.40000    25.97959   360.00000     4.69850    31.05742   360.00000     4.70861
    21.50000    26.12592   360.00000     4.69829    31.20045   360.00000     4.70852
    21.60000    26.27273   360.00000     4.69808    31.34359   360.00000     4.70842
    21.70000    26.42004   360.00000     4.69787    31.48682   360.00000     4.70832
    21.80000    26.56785   360.00000     4.69766    31.63015   360.00000     4.70823
    21.90000    26.71616   360.00000     4.69745    31.77359   360.00000     4.70813
    22.00000    26.86497   360.00000     4.69723    31.91713   360.00000     4.70803
    22.10000    27.01429   360.00000     4.69702    32.06077   360.00000     4.70793
    22.20000    27.16412   360.00000     4.69680    32.20452   360.00000     4.70783
    22.30000    27.26548   360.00000     4.69665    32.30142   360.00000     4.70776
    22.40000    27.41618   360.00000     4.69643    32.44535   360.00000     4.70766
    22.50000    27.56739   360.00000     4.69621    32.58938   360.00000     4.70756
    22.60000    27.71913   360.00000     4.69599    32.73352   360.00000     4.70746
    22.70000    27.87140   360.00000     4.69577    32.87777   360.00000     4.70735
    22.80000    28.02419   360.00000     4.69554    33.02214   360.00000     4.70725
    22.90000    28.17753   360.00000     4.69532    33.16662   360.00000     4.70715
    23.00000    28.28125   360.00000     4.69516    33.26401   360.00000     4.70707
    23.10000    28.43548   360.00000     4.69494    33.40868   360.00000     4.70697
    23.20000    28.59026   360.00000     4.69471    33.55347   360.00000     4.70686
    23.30000    28.74558   360.00000     4.69448    33.69837   360.00000     4.70675
