 # applied field (T), theta (degree), phi (degree), abs [muB/unitcell], abs [T]
       0.00000000       0.00000000       0.00000000      42.23371308       1.42151645
       0.10000000       0.45653951      45.00000000      42.23371765       1.42151660
       0.20000000       0.91308228      45.00000000      42.23373135       1.42151706
       0.30000000       1.36963157      45.00000000      42.23375417       1.42151783
       0.40000000      90.00000000      45.00000000      42.17304984       1.41947463
       0.50000000      90.00000000      45.00000000      42.17311486       1.41947681
       0.60000000      90.00000000      45.00000000      42.17317987       1.41947900
       0.70000000      90.00000000      45.00000000      42.17324488       1.41948119
       0.80000000      90.00000000      45.00000000      42.17330988       1.41948338
       0.90000000      90.00000000      45.00000000      42.17337488       1.41948557
       1.00000000      90.00000000      45.00000000      42.17343987       1.41948775
       1.10000000      90.00000000      45.00000000      42.17350486       1.41948994
       1.20000000      90.00000000      45.00000000      42.17356984       1.41949213
       1.30000000      90.00000000      45.00000000      42.17363482       1.41949432
       1.40000000      90.00000000      45.00000000      42.17369980       1.41949650
       1.50000000      90.00000000      45.00000000      42.17376476       1.41949869
       1.60000000      90.00000000      45.00000000      42.17382973       1.41950088
       1.70000000      90.00000000      45.00000000      42.17389469       1.41950306
       1.80000000      90.00000000      45.00000000      42.17395964       1.41950525
       1.90000000      90.00000000      45.00000000      42.17402459       1.41950743
       2.00000000      90.00000000      45.00000000      42.17408953       1.41950962
       2.10000000      90.00000000      45.00000000      42.17415447       1.41951181
       2.20000000      90.00000000      45.00000000      42.17421941       1.41951399
       2.30000000      90.00000000      45.00000000      42.17428434       1.41951618
       2.40000000      90.00000000      45.00000000      42.17434926       1.41951836
       2.50000000      90.00000000      45.00000000      42.17441418       1.41952055
       2.60000000      90.00000000      45.00000000      42.17447910       1.41952273
       2.70000000      90.00000000      45.00000000      42.17454401       1.41952492
       2.80000000      90.00000000      45.00000000      42.17460891       1.41952710
       2.90000000      90.00000000      45.00000000      42.17467382       1.41952929
       3.00000000      90.00000000      45.00000000      42.17473871       1.41953147
       3.10000000      90.00000000      45.00000000      42.17480360       1.41953365
       3.20000000      90.00000000      45.00000000      42.17486849       1.41953584
       3.30000000      90.00000000      45.00000000      42.17493337       1.41953802
       3.40000000      90.00000000      45.00000000      42.17499825       1.41954021
       3.50000000      90.00000000      45.00000000      42.17506312       1.41954239
       3.60000000      90.00000000      45.00000000      42.17512799       1.41954457
       3.70000000      90.00000000      45.00000000      42.17519285       1.41954676
       3.80000000      90.00000000      45.00000000      42.17525771       1.41954894
       3.90000000      90.00000000      45.00000000      42.17532256       1.41955112
       4.00000000      90.00000000      45.00000000      42.17538741       1.41955330
       4.10000000      90.00000000      45.00000000      42.17545226       1.41955549
       4.20000000      90.00000000      45.00000000      42.17551710       1.41955767
       4.30000000      90.00000000      45.00000000      42.17558193       1.41955985
       4.40000000      90.00000000      45.00000000      42.17564676       1.41956203
       4.50000000      90.00000000      45.00000000      42.17571159       1.41956422
       4.60000000      90.00000000      45.00000000      42.17577641       1.41956640
       4.70000000      90.00000000      45.00000000      42.17584122       1.41956858
       4.80000000      90.00000000      45.00000000      42.17590603       1.41957076
       4.90000000      90.00000000      45.00000000      42.17597084       1.41957294
       5.00000000      90.00000000      45.00000000      42.17603564       1.41957512
       5.10000000      90.00000000      45.00000000      42.17610044       1.41957730
       5.20000000      90.00000000      45.00000000      42.17616523       1.41957949
       5.30000000      90.00000000      45.00000000      42.17623002       1.41958167
       5.40000000      90.00000000      45.00000000      42.17629480       1.41958385
       5.50000000      90.00000000      45.00000000      42.17635958       1.41958603
       5.60000000      90.00000000      45.00000000      42.17642436       1.41958821
       5.70000000      90.00000000      45.00000000      42.17648913       1.41959039
       5.80000000      90.00000000      45.00000000      42.17655389       1.41959257
       5.90000000      90.00000000      45.00000000      42.17661865       1.41959475
       6.00000000      90.00000000      45.00000000      42.17668341       1.41959693
       6.10000000      90.00000000      45.00000000      42.17674816       1.41959911
       6.20000000      90.00000000      45.00000000      42.17681290       1.41960128
       6.30000000      90.00000000      45.00000000      42.17687765       1.41960346
       6.40000000      90.00000000      45.00000000      42.17694238       1.41960564
       6.50000000      90.00000000      45.00000000      42.17700712       1.41960782
       6.60000000      90.00000000      45.00000000      42.17707184       1.41961000
       6.70000000      90.00000000      45.00000000      42.17713657       1.41961218
       6.80000000      90.00000000      45.00000000      42.17720129       1.41961436
       6.90000000      90.00000000      45.00000000      42.17726600       1.41961654
       7.00000000      90.00000000      45.00000000      42.17733071       1.41961871
       7.10000000      90.00000000      45.00000000      42.17739542       1.41962089
       7.20000000      90.00000000      45.00000000      42.17746012       1.41962307
       7.30000000      90.00000000      45.00000000      42.17752481       1.41962525
       7.40000000      90.00000000      45.00000000      42.17758951       1.41962742
       7.50000000      90.00000000      45.00000000      42.17765419       1.41962960
       7.60000000      90.00000000      45.00000000      42.17771888       1.41963178
       7.70000000      90.00000000      45.00000000      42.17778355       1.41963396
       7.80000000      90.00000000      45.00000000      42.17784823       1.41963613
       7.90000000      90.00000000      45.00000000      42.17791290       1.41963831
       8.00000000      90.00000000      45.00000000      42.17797756       1.41964049
       8.10000000      90.00000000      45.00000000      42.17804222       1.41964266
       8.20000000      90.00000000      45.00000000      42.17810688       1.41964484
       8.30000000      90.00000000      45.00000000      42.17817153       1.41964701
       8.40000000      90.00000000      45.00000000      42.17823618       1.41964919
       8.50000000      90.00000000      45.00000000      42.17830082       1.41965137
       8.60000000      90.00000000      45.00000000      42.17836546       1.41965354
       8.70000000      90.00000000      45.00000000      42.17843009       1.41965572
       8.80000000      90.00000000      45.00000000      42.17849472       1.41965789
       8.90000000      90.00000000      45.00000000      42.17855935       1.41966007
       9.00000000      90.00000000      45.00000000      42.17862397       1.41966224
       9.10000000      90.00000000      45.00000000      42.17868858       1.41966442
       9.20000000      90.00000000      45.00000000      42.17875319       1.41966659
       9.30000000      90.00000000      45.00000000      42.17881780       1.41966877
       9.40000000      90.00000000      45.00000000      42.17888240       1.41967094
       9.50000000      90.00000000      45.00000000      42.17894700       1.41967311
       9.60000000      90.00000000      45.00000000      42.17901159       1.41967529
       9.70000000      90.00000000      45.00000000      42.17907618       1.41967746
       9.80000000      90.00000000      45.00000000      42.17914077       1.41967964
       9.90000000      90.00000000      45.00000000      42.17920535       1.41968181
      10.00000000      90.00000000      45.00000000      42.17926993       1.41968398
      10.10000000      90.00000000      45.00000000      42.17933450       1.41968616
      10.20000000      90.00000000      45.00000000      42.17939907       1.41968833
      10.30000000      90.00000000      45.00000000      42.17946363       1.41969050
      10.40000000      90.00000000      45.00000000      42.17952819       1.41969268
      10.50000000      90.00000000      45.00000000      42.17959274       1.41969485
      10.60000000      90.00000000      45.00000000      42.17965729       1.41969702
      10.70000000      90.00000000      45.00000000      42.17972184       1.41969919
      10.80000000      90.00000000      45.00000000      42.17978638       1.41970137
      10.90000000      90.00000000      45.00000000      42.17985092       1.41970354
      11.00000000      90.00000000      45.00000000      42.17991545       1.41970571
      11.10000000      90.00000000      45.00000000      42.17997998       1.41970788
      11.20000000      90.00000000      45.00000000      42.18004450       1.41971005
      11.30000000      90.00000000      45.00000000      42.18010902       1.41971223
      11.40000000      90.00000000      45.00000000      42.18017354       1.41971440
      11.50000000      90.00000000      45.00000000      42.18023805       1.41971657
      11.60000000      90.00000000      45.00000000      42.18030256       1.41971874
      11.70000000      90.00000000      45.00000000      42.18036706       1.41972091
      11.80000000      90.00000000      45.00000000      42.18043156       1.41972308
      11.90000000      90.00000000      45.00000000      42.18049605       1.41972525
      12.00000000      90.00000000      45.00000000      42.18056054       1.41972742
      12.10000000      90.00000000      45.00000000      42.18062503       1.41972959
      12.20000000      90.00000000      45.00000000      42.18068951       1.41973176
      12.30000000      90.00000000      45.00000000      42.18075399       1.41973393
      12.40000000      90.00000000      45.00000000      42.18081846       1.41973610
      12.50000000      90.00000000      45.00000000      42.18088293       1.41973827
      12.60000000      90.00000000      45.00000000      42.18094739       1.41974044
      12.70000000      90.00000000      45.00000000      42.18101185       1.41974261
      12.80000000      90.00000000      45.00000000      42.18107631       1.41974478
      12.90000000      90.00000000      45.00000000      42.18114076       1.41974695
      13.00000000      90.00000000      45.00000000      42.18120521       1.41974912
      13.10000000      90.00000000      45.00000000      42.18126965       1.41975129
      13.20000000      90.00000000      45.00000000      42.18133409       1.41975346
      13.30000000      90.00000000      45.00000000      42.18139852       1.41975563
      13.40000000      90.00000000      45.00000000      42.18146296       1.41975780
      13.50000000      90.00000000      45.00000000      42.18152738       1.41975997
      13.60000000      90.00000000      45.00000000      42.18159180       1.41976213
      13.70000000      90.00000000      45.00000000      42.18165622       1.41976430
      13.80000000      90.00000000      45.00000000      42.18172064       1.41976647
      13.90000000      90.00000000      45.00000000      42.18178505       1.41976864
      14.00000000      90.00000000      45.00000000      42.18184945       1.41977081
      14.10000000      90.00000000      45.00000000      42.18191385       1.41977297
      14.20000000      90.00000000      45.00000000      42.18197825       1.41977514
      14.30000000      90.00000000      45.00000000      42.18204265       1.41977731
      14.40000000      90.00000000      45.00000000      42.18210703       1.41977948
      14.50000000      90.00000000      45.00000000      42.18217142       1.41978164
      14.60000000      90.00000000      45.00000000      42.18223580       1.41978381
      14.70000000      90.00000000      45.00000000      42.18230018       1.41978598
      14.80000000      90.00000000      45.00000000      42.18236455       1.41978814
      14.90000000      90.00000000      45.00000000      42.18242892       1.41979031
      15.00000000      90.00000000      45.00000000      42.18249328       1.41979248
      15.10000000      90.00000000      45.00000000      42.18255764       1.41979464
      15.20000000      90.00000000      45.00000000      42.18262200       1.41979681
      15.30000000      90.00000000      45.00000000      42.18268635       1.41979898
      15.40000000      90.00000000      45.00000000      42.18275070       1.41980114
      15.50000000      90.00000000      45.00000000      42.18281505       1.41980331
      15.60000000      90.00000000      45.00000000      42.18287939       1.41980547
      15.70000000      90.00000000      45.00000000      42.18294372       1.41980764
      15.80000000      90.00000000      45.00000000      42.18300805       1.41980980
      15.90000000      90.00000000      45.00000000      42.18307238       1.41981197
      16.00000000      90.00000000      45.00000000      42.18313671       1.41981413
      16.10000000      90.00000000      45.00000000      42.18320103       1.41981630
      16.20000000      90.00000000      45.00000000      42.18326534       1.41981846
      16.30000000      90.00000000      45.00000000      42.18332965       1.41982063
      16.40000000      90.00000000      45.00000000      42.18339396       1.41982279
      16.50000000      90.00000000      45.00000000      42.18345826       1.41982496
      16.60000000      90.00000000      45.00000000      42.18352256       1.41982712
      16.70000000      90.00000000      45.00000000      42.18358686       1.41982928
      16.80000000      90.00000000      45.00000000      42.18365115       1.41983145
      16.90000000      90.00000000      45.00000000      42.18371544       1.41983361
      17.00000000      90.00000000      45.00000000      42.18377972       1.41983578
      17.10000000      90.00000000      45.00000000      42.18384400       1.41983794
      17.20000000      90.00000000      45.00000000      42.18390828       1.41984010
      17.30000000      90.00000000      45.00000000      42.18397255       1.41984227
      17.40000000      90.00000000      45.00000000      42.18403682       1.41984443
      17.50000000      90.00000000      45.00000000      42.18410108       1.41984659
      17.60000000      90.00000000      45.00000000      42.18416534       1.41984876
      17.70000000      90.00000000      45.00000000      42.18422960       1.41985092
      17.80000000      90.00000000      45.00000000      42.18429385       1.41985308
      17.90000000      90.00000000      45.00000000      42.18435810       1.41985524
      18.00000000      90.00000000      45.00000000      42.18442234       1.41985741
      18.10000000      90.00000000      45.00000000      42.18448658       1.41985957
      18.20000000      90.00000000      45.00000000      42.18455082       1.41986173
      18.30000000      90.00000000      45.00000000      42.18461505       1.41986389
      18.40000000      90.00000000      45.00000000      42.18467928       1.41986605
      18.50000000      90.00000000      45.00000000      42.18474350       1.41986822
      18.60000000      90.00000000      45.00000000      42.18480773       1.41987038
      18.70000000      90.00000000      45.00000000      42.18487194       1.41987254
      18.80000000      90.00000000      45.00000000      42.18493615       1.41987470
      18.90000000      90.00000000      45.00000000      42.18500036       1.41987686
      19.00000000      90.00000000      45.00000000      42.18506457       1.41987902
      19.10000000      90.00000000      45.00000000      42.18512877       1.41988118
      19.20000000      90.00000000      45.00000000      42.18519297       1.41988334
      19.30000000      90.00000000      45.00000000      42.18525716       1.41988550
      19.40000000      90.00000000      45.00000000      42.18532135       1.41988766
      19.50000000      90.00000000      45.00000000      42.18538554       1.41988983
      19.60000000      90.00000000      45.00000000      42.18544972       1.41989199
      19.70000000      90.00000000      45.00000000      42.18551390       1.41989415
      19.80000000      90.00000000      45.00000000      42.18557807       1.41989631
      19.90000000      90.00000000      45.00000000      42.18564224       1.41989847
      20.00000000      90.00000000      45.00000000      42.18570641       1.41990063
      20.10000000      90.00000000      45.00000000      42.18577057       1.41990278
      20.20000000      90.00000000      45.00000000      42.18583473       1.41990494
      20.30000000      90.00000000      45.00000000      42.18589888       1.41990710
      20.40000000      90.00000000      45.00000000      42.18596304       1.41990926
      20.50000000      90.00000000      45.00000000      42.18602718       1.41991142
      20.60000000      90.00000000      45.00000000      42.18609133       1.41991358
      20.70000000      90.00000000      45.00000000      42.18615547       1.41991574
      20.80000000      90.00000000      45.00000000      42.18621960       1.41991790
      20.90000000      90.00000000      45.00000000      42.18628373       1.41992006
      21.00000000      90.00000000      45.00000000      42.18634786       1.41992222
      21.10000000      90.00000000      45.00000000      42.18641199       1.41992437
      21.20000000      90.00000000      45.00000000      42.18647611       1.41992653
      21.30000000      90.00000000      45.00000000      42.18654023       1.41992869
      21.40000000      90.00000000      45.00000000      42.18660434       1.41993085
      21.50000000      90.00000000      45.00000000      42.18666845       1.41993301
      21.60000000      90.00000000      45.00000000      42.18673256       1.41993516
      21.70000000      90.00000000      45.00000000      42.18679666       1.41993732
      21.80000000      90.00000000      45.00000000      42.18686076       1.41993948
      21.90000000      90.00000000      45.00000000      42.18692485       1.41994164
      22.00000000      90.00000000      45.00000000      42.18698894       1.41994379
      22.10000000      90.00000000      45.00000000      42.18705303       1.41994595
      22.20000000      90.00000000      45.00000000      42.18711711       1.41994811
      22.30000000      90.00000000      45.00000000      42.18718119       1.41995026
      22.40000000      90.00000000      45.00000000      42.18724527       1.41995242
      22.50000000      90.00000000      45.00000000      42.18730934       1.41995458
      22.60000000      90.00000000      45.00000000      42.18737341       1.41995673
      22.70000000      90.00000000      45.00000000      42.18743748       1.41995889
      22.80000000      90.00000000      45.00000000      42.18750154       1.41996105
      22.90000000      90.00000000      45.00000000      42.18756560       1.41996320
      23.00000000      90.00000000      45.00000000      42.18762965       1.41996536
