 # applied field (T), theta (degree), phi (degree), abs for RE 3-4
     0.00000     0.40476   135.00000     3.94481     0.40476    45.00000     3.94481
     0.10000     0.47295    34.44792     3.94523     1.00974    17.59077     3.94486
     0.20000     1.09515    13.13717     3.94556     1.67063    11.18961     3.94482
     0.30000     1.75844     7.52677     3.94582     2.34062     8.43439     3.94471
     0.40000     2.42975     5.00096     3.94598     3.01381     6.90870     3.94452
     0.50000     3.10422     3.57034     3.94607     3.68861     5.94161     3.94425
     0.60000     3.78049     2.65084     3.94607     4.36447     5.27466     3.94391
     0.70000     4.45807     2.01049     3.94598     5.04119     4.78739     3.94349
     0.80000     5.13677     1.53912     3.94580     5.71866     4.41617     3.94300
     0.90000     5.81651     1.17772     3.94554     6.39688     4.12423     3.94243
     1.00000     6.49728     0.89187     3.94518     7.07587     3.88884     3.94180
     1.10000     7.17910     0.66013     3.94474     7.75566     3.69521     3.94109
     1.20000     7.91431     0.45512     3.94415     8.48843     3.52199     3.94025
     1.30000     8.59840     0.29597     3.94352     9.17003     3.38637     3.93940
     1.40000     9.33617     0.15051     3.94273     9.90487     3.26172     3.93841
     1.50000    10.02275     0.03441     3.94190    10.58851     3.16186     3.93742
     1.60000    10.76330   359.92577     3.94090    11.32569     3.06828     3.93629
     1.70000    11.50538   359.83089     3.93980    12.06417     2.98655     3.93509
     1.80000    12.24907   359.74727     3.93859    12.80402     2.91466     3.93382
     1.90000    12.99442   359.67299     3.93728    13.54532     2.85100     3.93248
     2.00000    13.79467   359.60205     3.93575    14.34100     2.79053     3.93098
     2.10000    14.54365   359.54260     3.93422    15.08549     2.74017     3.92951
     2.20000    15.34793   359.48508     3.93246    15.88472     2.69184     3.92787
     2.30000    16.15438   359.43297     3.93058    16.68589     2.64849     3.92617
     2.40000    16.96308   359.38551     3.92859    17.48907     2.60944     3.92442
     2.50000    17.77409   359.34205     3.92648    18.29430     2.57414     3.92260
     2.60000    18.64155   359.29952     3.92411    19.15533     2.54009     3.92061
     2.70000    19.51176   359.26040     3.92162    20.01883     2.50929     3.91856
     2.80000    20.38480   359.22424     3.91901    20.88485     2.48133     3.91646
     2.90000    21.31536   359.18866     3.91610    21.80761     2.45437     3.91418
     3.00000    22.24923   359.15563     3.91306    22.73333     2.42989     3.91185
     3.10000    23.18648   359.12482     3.90991    23.66203     2.40759     3.90948
     3.20000    24.18243   359.09432     3.90644    24.64847     2.38609     3.90694
     3.30000    25.18228   359.06574     3.90285    25.63833     2.36649     3.90436
     3.40000    26.24179   359.03738     3.89893    26.68673     2.34764     3.90161
     3.50000    27.36173   359.00929     3.89467    27.79430     2.32958     3.89869
     3.60000    28.48667   358.98277     3.89030    28.90611     2.31312     3.89576
     3.70000    29.67311   358.95640     3.88560    30.07791     2.29735     3.89268
     3.80000    30.92188   358.93018     3.88056    31.31031     2.28229     3.88945
     3.90000    32.23383   358.90408     3.87519    32.60394     2.26793     3.88610
     4.00000    33.66718   358.87702     3.86927    34.01588     2.25370     3.88248
     4.10000    35.16607   358.85010     3.86306    35.49072     2.24020     3.87877
     4.20000    36.73138   358.82326     3.85659    37.02900     2.22737     3.87500
     4.30000    38.48069   358.79451     3.84942    38.74571     2.21428     3.87090
     4.40000    40.35815   358.76486     3.84187    40.58530     2.20142     3.86668
     4.50000    42.48380   358.73248     3.83360    42.66442     2.18801     3.86213
     4.60000    44.92106   358.69655     3.82460    45.04367     2.17375     3.85724
     4.70000    47.79454   358.65539     3.81482    47.84282     2.15793     3.85192
     4.80000    51.41235   358.60487     3.80409    51.35935     2.13879     3.84594
     4.90000    56.45247   358.53614     3.79259    56.24904     2.11219     3.83888
     5.00000    67.80572   358.38773     3.78276    67.27042     2.04558     3.82745
     5.10000    90.42800   358.14233     3.81381    89.57200     1.85767     3.81381
     5.20000    90.42798   358.14243     3.81392    89.57202     1.85757     3.81392
     5.30000    90.42796   358.14253     3.81402    89.57204     1.85747     3.81402
     5.40000    90.42794   358.14263     3.81412    89.57206     1.85737     3.81412
     5.50000    90.42791   358.14272     3.81423    89.57209     1.85728     3.81423
     5.60000    90.42789   358.14282     3.81433    89.57211     1.85718     3.81433
     5.70000    90.42787   358.14292     3.81444    89.57213     1.85708     3.81444
     5.80000    90.42785   358.14302     3.81454    89.57215     1.85698     3.81454
     5.90000    90.42783   358.14312     3.81464    89.57217     1.85688     3.81464
     6.00000    90.42780   358.14322     3.81475    89.57220     1.85678     3.81475
     6.10000    90.42778   358.14332     3.81485    89.57222     1.85668     3.81485
     6.20000    90.42776   358.14342     3.81495    89.57224     1.85658     3.81495
     6.30000    90.42774   358.14351     3.81506    89.57226     1.85649     3.81506
     6.40000    90.42772   358.14361     3.81516    89.57228     1.85639     3.81516
     6.50000    90.42770   358.14371     3.81526    89.57230     1.85629     3.81526
     6.60000    90.42767   358.14381     3.81537    89.57233     1.85619     3.81537
     6.70000    90.42765   358.14391     3.81547    89.57235     1.85609     3.81547
     6.80000    90.42763   358.14401     3.81557    89.57237     1.85599     3.81557
     6.90000    90.42761   358.14411     3.81567    89.57239     1.85589     3.81567
     7.00000    90.42759   358.14421     3.81578    89.57241     1.85579     3.81578
     7.10000    90.42756   358.14430     3.81588    89.57244     1.85570     3.81588
     7.20000    90.42754   358.14440     3.81598    89.57246     1.85560     3.81598
     7.30000    90.42752   358.14450     3.81609    89.57248     1.85550     3.81609
     7.40000    90.42750   358.14460     3.81619    89.57250     1.85540     3.81619
     7.50000    90.42748   358.14470     3.81629    89.57252     1.85530     3.81629
     7.60000    90.42746   358.14480     3.81640    89.57254     1.85520     3.81640
     7.70000    90.42743   358.14490     3.81650    89.57257     1.85510     3.81650
     7.80000    90.42741   358.14499     3.81660    89.57259     1.85501     3.81660
     7.90000    90.42739   358.14509     3.81670    89.57261     1.85491     3.81670
     8.00000    90.42737   358.14519     3.81681    89.57263     1.85481     3.81681
     8.10000    90.42735   358.14529     3.81691    89.57265     1.85471     3.81691
     8.20000    90.42732   358.14539     3.81701    89.57268     1.85461     3.81701
     8.30000    90.42730   358.14549     3.81712    89.57270     1.85451     3.81712
     8.40000    90.42728   358.14559     3.81722    89.57272     1.85441     3.81722
     8.50000    90.42726   358.14568     3.81732    89.57274     1.85432     3.81732
     8.60000    90.42724   358.14578     3.81742    89.57276     1.85422     3.81742
     8.70000    90.42722   358.14588     3.81753    89.57278     1.85412     3.81753
     8.80000    90.42719   358.14598     3.81763    89.57281     1.85402     3.81763
     8.90000    90.42717   358.14608     3.81773    89.57283     1.85392     3.81773
     9.00000    90.42715   358.14618     3.81783    89.57285     1.85382     3.81783
     9.10000    90.42713   358.14627     3.81794    89.57287     1.85373     3.81794
     9.20000    90.42711   358.14637     3.81804    89.57289     1.85363     3.81804
     9.30000    90.42709   358.14647     3.81814    89.57291     1.85353     3.81814
     9.40000    90.42706   358.14657     3.81824    89.57294     1.85343     3.81824
     9.50000    90.42704   358.14667     3.81834    89.57296     1.85333     3.81834
     9.60000    90.42702   358.14677     3.81845    89.57298     1.85323     3.81845
     9.70000    90.42700   358.14686     3.81855    89.57300     1.85314     3.81855
     9.80000    90.42698   358.14696     3.81865    89.57302     1.85304     3.81865
     9.90000    90.42696   358.14706     3.81875    89.57304     1.85294     3.81875
    10.00000    90.42693   358.14716     3.81885    89.57307     1.85284     3.81885
    10.10000    90.42691   358.14726     3.81896    89.57309     1.85274     3.81896
    10.20000    90.42689   358.14735     3.81906    89.57311     1.85265     3.81906
    10.30000    90.42687   358.14745     3.81916    89.57313     1.85255     3.81916
    10.40000    90.42685   358.14755     3.81926    89.57315     1.85245     3.81926
    10.50000    90.42683   358.14765     3.81936    89.57317     1.85235     3.81936
    10.60000    90.42680   358.14775     3.81947    89.57320     1.85225     3.81947
    10.70000    90.42678   358.14784     3.81957    89.57322     1.85216     3.81957
    10.80000    90.42676   358.14794     3.81967    89.57324     1.85206     3.81967
    10.90000    90.42674   358.14804     3.81977    89.57326     1.85196     3.81977
    11.00000    90.42672   358.14814     3.81987    89.57328     1.85186     3.81987
    11.10000    90.42670   358.14824     3.81998    89.57330     1.85176     3.81998
    11.20000    90.42667   358.14833     3.82008    89.57333     1.85167     3.82008
    11.30000    90.42665   358.14843     3.82018    89.57335     1.85157     3.82018
    11.40000    90.42663   358.14853     3.82028    89.57337     1.85147     3.82028
    11.50000    90.42661   358.14863     3.82038    89.57339     1.85137     3.82038
    11.60000    90.42659   358.14873     3.82048    89.57341     1.85127     3.82048
    11.70000    90.42657   358.14882     3.82059    89.57343     1.85118     3.82059
    11.80000    90.42654   358.14892     3.82069    89.57346     1.85108     3.82069
    11.90000    90.42652   358.14902     3.82079    89.57348     1.85098     3.82079
    12.00000    90.42650   358.14912     3.82089    89.57350     1.85088     3.82089
    12.10000    90.42648   358.14922     3.82099    89.57352     1.85078     3.82099
    12.20000    90.42646   358.14931     3.82109    89.57354     1.85069     3.82109
    12.30000    90.42644   358.14941     3.82119    89.57356     1.85059     3.82119
    12.40000    90.42641   358.14951     3.82129    89.57359     1.85049     3.82129
    12.50000    90.42639   358.14961     3.82140    89.57361     1.85039     3.82140
    12.60000    90.42637   358.14970     3.82150    89.57363     1.85030     3.82150
    12.70000    90.42635   358.14980     3.82160    89.57365     1.85020     3.82160
    12.80000    90.42633   358.14990     3.82170    89.57367     1.85010     3.82170
    12.90000    90.42631   358.15000     3.82180    89.57369     1.85000     3.82180
    13.00000    90.42628   358.15009     3.82190    89.57372     1.84991     3.82190
    13.10000    90.42626   358.15019     3.82200    89.57374     1.84981     3.82200
    13.20000    90.42624   358.15029     3.82210    89.57376     1.84971     3.82210
    13.30000    90.42622   358.15039     3.82220    89.57378     1.84961     3.82220
    13.40000    90.42620   358.15048     3.82231    89.57380     1.84952     3.82231
    13.50000    90.42618   358.15058     3.82241    89.57382     1.84942     3.82241
    13.60000    90.42615   358.15068     3.82251    89.57385     1.84932     3.82251
    13.70000    90.42613   358.15078     3.82261    89.57387     1.84922     3.82261
    13.80000    90.42611   358.15087     3.82271    89.57389     1.84913     3.82271
    13.90000    90.42609   358.15097     3.82281    89.57391     1.84903     3.82281
    14.00000    90.42607   358.15107     3.82291    89.57393     1.84893     3.82291
    14.10000    90.42605   358.15117     3.82301    89.57395     1.84883     3.82301
    14.20000    90.42603   358.15126     3.82311    89.57397     1.84874     3.82311
    14.30000    90.42600   358.15136     3.82321    89.57400     1.84864     3.82321
    14.40000    90.42598   358.15146     3.82331    89.57402     1.84854     3.82331
    14.50000    90.42596   358.15156     3.82341    89.57404     1.84844     3.82341
    14.60000    90.42594   358.15165     3.82351    89.57406     1.84835     3.82351
    14.70000    90.42592   358.15175     3.82362    89.57408     1.84825     3.82362
    14.80000    90.42590   358.15185     3.82372    89.57410     1.84815     3.82372
    14.90000    90.42587   358.15195     3.82382    89.57413     1.84805     3.82382
    15.00000    90.42585   358.15204     3.82392    89.57415     1.84796     3.82392
    15.10000    90.42583   358.15214     3.82402    89.57417     1.84786     3.82402
    15.20000    90.42581   358.15224     3.82412    89.57419     1.84776     3.82412
    15.30000    90.42579   358.15233     3.82422    89.57421     1.84767     3.82422
    15.40000    90.42577   358.15243     3.82432    89.57423     1.84757     3.82432
    15.50000    90.42575   358.15253     3.82442    89.57425     1.84747     3.82442
    15.60000    90.42572   358.15263     3.82452    89.57428     1.84737     3.82452
    15.70000    90.42570   358.15272     3.82462    89.57430     1.84728     3.82462
    15.80000    90.42568   358.15282     3.82472    89.57432     1.84718     3.82472
    15.90000    90.42566   358.15292     3.82482    89.57434     1.84708     3.82482
    16.00000    90.42564   358.15301     3.82492    89.57436     1.84699     3.82492
    16.10000    90.42562   358.15311     3.82502    89.57438     1.84689     3.82502
    16.20000    90.42560   358.15321     3.82512    89.57440     1.84679     3.82512
    16.30000    90.42557   358.15331     3.82522    89.57443     1.84669     3.82522
    16.40000    90.42555   358.15340     3.82532    89.57445     1.84660     3.82532
    16.50000    90.42553   358.15350     3.82542    89.57447     1.84650     3.82542
    16.60000    90.42551   358.15360     3.82552    89.57449     1.84640     3.82552
    16.70000    90.42549   358.15369     3.82562    89.57451     1.84631     3.82562
    16.80000    90.42547   358.15379     3.82572    89.57453     1.84621     3.82572
    16.90000    90.42545   358.15389     3.82582    89.57455     1.84611     3.82582
    17.00000    90.42542   358.15398     3.82592    89.57458     1.84602     3.82592
    17.10000    90.42540   358.15408     3.82602    89.57460     1.84592     3.82602
    17.20000    90.42538   358.15418     3.82612    89.57462     1.84582     3.82612
    17.30000    90.42536   358.15427     3.82622    89.57464     1.84573     3.82622
    17.40000    90.42534   358.15437     3.82632    89.57466     1.84563     3.82632
    17.50000    90.42532   358.15447     3.82642    89.57468     1.84553     3.82642
    17.60000    90.42530   358.15456     3.82652    89.57470     1.84544     3.82652
    17.70000    90.42527   358.15466     3.82662    89.57473     1.84534     3.82662
    17.80000    90.42525   358.15476     3.82672    89.57475     1.84524     3.82672
    17.90000    90.42523   358.15485     3.82681    89.57477     1.84515     3.82681
    18.00000    90.42521   358.15495     3.82691    89.57479     1.84505     3.82691
    18.10000    90.42519   358.15505     3.82701    89.57481     1.84495     3.82701
    18.20000    90.42517   358.15514     3.82711    89.57483     1.84486     3.82711
    18.30000    90.42515   358.15524     3.82721    89.57485     1.84476     3.82721
    18.40000    90.42512   358.15534     3.82731    89.57488     1.84466     3.82731
    18.50000    90.42510   358.15543     3.82741    89.57490     1.84457     3.82741
    18.60000    90.42508   358.15553     3.82751    89.57492     1.84447     3.82751
    18.70000    90.42506   358.15563     3.82761    89.57494     1.84437     3.82761
    18.80000    90.42504   358.15572     3.82771    89.57496     1.84428     3.82771
    18.90000    90.42502   358.15582     3.82781    89.57498     1.84418     3.82781
    19.00000    90.42500   358.15592     3.82791    89.57500     1.84408     3.82791
    19.10000    90.42497   358.15601     3.82801    89.57503     1.84399     3.82801
    19.20000    90.42495   358.15611     3.82810    89.57505     1.84389     3.82810
    19.30000    90.42493   358.15621     3.82820    89.57507     1.84379     3.82820
    19.40000    90.42491   358.15630     3.82830    89.57509     1.84370     3.82830
    19.50000    90.42489   358.15640     3.82840    89.57511     1.84360     3.82840
    19.60000    90.42487   358.15650     3.82850    89.57513     1.84350     3.82850
    19.70000    90.42485   358.15659     3.82860    89.57515     1.84341     3.82860
    19.80000    90.42482   358.15669     3.82870    89.57518     1.84331     3.82870
    19.90000    90.42480   358.15679     3.82880    89.57520     1.84321     3.82880
    20.00000    90.42478   358.15688     3.82890    89.57522     1.84312     3.82890
    20.10000    90.42476   358.15698     3.82899    89.57524     1.84302     3.82899
    20.20000    90.42474   358.15707     3.82909    89.57526     1.84293     3.82909
    20.30000    90.42472   358.15717     3.82919    89.57528     1.84283     3.82919
    20.40000    90.42470   358.15727     3.82929    89.57530     1.84273     3.82929
    20.50000    90.42468   358.15736     3.82939    89.57532     1.84264     3.82939
    20.60000    90.42465   358.15746     3.82949    89.57535     1.84254     3.82949
    20.70000    90.42463   358.15756     3.82959    89.57537     1.84244     3.82959
    20.80000    90.42461   358.15765     3.82968    89.57539     1.84235     3.82968
    20.90000    90.42459   358.15775     3.82978    89.57541     1.84225     3.82978
    21.00000    90.42457   358.15784     3.82988    89.57543     1.84216     3.82988
    21.10000    90.42455   358.15794     3.82998    89.57545     1.84206     3.82998
    21.20000    90.42453   358.15804     3.83008    89.57547     1.84196     3.83008
    21.30000    90.42451   358.15813     3.83018    89.57549     1.84187     3.83018
    21.40000    90.42448   358.15823     3.83028    89.57552     1.84177     3.83028
    21.50000    90.42446   358.15833     3.83037    89.57554     1.84167     3.83037
    21.60000    90.42444   358.15842     3.83047    89.57556     1.84158     3.83047
    21.70000    90.42442   358.15852     3.83057    89.57558     1.84148     3.83057
    21.80000    90.42440   358.15861     3.83067    89.57560     1.84139     3.83067
    21.90000    90.42438   358.15871     3.83077    89.57562     1.84129     3.83077
    22.00000    90.42436   358.15881     3.83086    89.57564     1.84119     3.83086
    22.10000    90.42433   358.15890     3.83096    89.57567     1.84110     3.83096
    22.20000    90.42431   358.15900     3.83106    89.57569     1.84100     3.83106
    22.30000    90.42429   358.15909     3.83116    89.57571     1.84091     3.83116
    22.40000    90.42427   358.15919     3.83126    89.57573     1.84081     3.83126
    22.50000    90.42425   358.15929     3.83135    89.57575     1.84071     3.83135
    22.60000    90.42423   358.15938     3.83145    89.57577     1.84062     3.83145
    22.70000    90.42421   358.15948     3.83155    89.57579     1.84052     3.83155
    22.80000    90.42419   358.15957     3.83165    89.57581     1.84043     3.83165
    22.90000    90.42417   358.15967     3.83175    89.57583     1.84033     3.83175
    23.00000    90.42414   358.15976     3.83184    89.57586     1.84024     3.83184
    23.10000    90.42412   358.15986     3.83194    89.57588     1.84014     3.83194
    23.20000    90.42410   358.15996     3.83204    89.57590     1.84004     3.83204
    23.30000    90.42408   358.16005     3.83214    89.57592     1.83995     3.83214
