 # applied field (T), theta (degree), phi (degree), abs for RE 3-4
     0.00000    90.00000    38.67224     3.50174    90.00000    51.32776     3.50174
     0.10000    90.00000    38.67250     3.50185    90.00000    51.32750     3.50185
     0.20000    90.00000    38.67275     3.50196    90.00000    51.32725     3.50196
     0.30000    90.00000    38.67301     3.50207    90.00000    51.32699     3.50207
     0.40000    90.00000    38.67326     3.50218    90.00000    51.32674     3.50218
     0.50000    90.00000    38.67352     3.50229    90.00000    51.32648     3.50229
     0.60000    90.00000    38.67377     3.50240    90.00000    51.32623     3.50240
     0.70000    90.00000    38.67403     3.50251    90.00000    51.32597     3.50251
     0.80000    90.00000    38.67428     3.50262    90.00000    51.32572     3.50262
     0.90000    90.00000    38.67454     3.50273    90.00000    51.32546     3.50273
     1.00000    90.00000    38.67479     3.50284    90.00000    51.32521     3.50284
     1.10000    90.00000    38.67504     3.50294    90.00000    51.32496     3.50294
     1.20000    90.00000    38.67530     3.50305    90.00000    51.32470     3.50305
     1.30000    90.00000    38.67555     3.50316    90.00000    51.32445     3.50316
     1.40000    90.00000    38.67581     3.50327    90.00000    51.32419     3.50327
     1.50000    90.00000    38.67606     3.50338    90.00000    51.32394     3.50338
     1.60000    90.00000    38.67632     3.50349    90.00000    51.32368     3.50349
     1.70000    90.00000    38.67657     3.50360    90.00000    51.32343     3.50360
     1.80000    90.00000    38.67682     3.50371    90.00000    51.32318     3.50371
     1.90000    90.00000    38.67708     3.50382    90.00000    51.32292     3.50382
     2.00000    90.00000    38.67733     3.50392    90.00000    51.32267     3.50392
     2.10000    90.00000    38.67759     3.50403    90.00000    51.32241     3.50403
     2.20000    90.00000    38.67784     3.50414    90.00000    51.32216     3.50414
     2.30000    90.00000    38.67809     3.50425    90.00000    51.32191     3.50425
     2.40000    90.00000    38.67835     3.50436    90.00000    51.32165     3.50436
     2.50000    90.00000    38.67860     3.50447    90.00000    51.32140     3.50447
     2.60000    90.00000    38.67885     3.50458    90.00000    51.32115     3.50458
     2.70000    90.00000    38.67911     3.50469    90.00000    51.32089     3.50469
     2.80000    90.00000    38.67936     3.50479    90.00000    51.32064     3.50479
     2.90000    90.00000    38.67962     3.50490    90.00000    51.32038     3.50490
     3.00000    90.00000    38.67987     3.50501    90.00000    51.32013     3.50501
     3.10000    90.00000    38.68012     3.50512    90.00000    51.31988     3.50512
     3.20000    90.00000    38.68038     3.50523    90.00000    51.31962     3.50523
     3.30000    90.00000    38.68063     3.50534    90.00000    51.31937     3.50534
     3.40000    90.00000    38.68088     3.50545    90.00000    51.31912     3.50545
     3.50000    90.00000    38.68114     3.50555    90.00000    51.31886     3.50555
     3.60000    90.00000    38.68139     3.50566    90.00000    51.31861     3.50566
     3.70000    90.00000    38.68164     3.50577    90.00000    51.31836     3.50577
     3.80000    90.00000    38.68190     3.50588    90.00000    51.31810     3.50588
     3.90000    90.00000    38.68215     3.50599    90.00000    51.31785     3.50599
     4.00000    90.00000    38.68240     3.50609    90.00000    51.31760     3.50609
     4.10000    90.00000    38.68266     3.50620    90.00000    51.31734     3.50620
     4.20000    90.00000    38.68291     3.50631    90.00000    51.31709     3.50631
     4.30000    90.00000    38.68316     3.50642    90.00000    51.31684     3.50642
     4.40000    90.00000    38.68341     3.50653    90.00000    51.31659     3.50653
     4.50000    90.00000    38.68367     3.50664    90.00000    51.31633     3.50664
     4.60000    90.00000    38.68392     3.50674    90.00000    51.31608     3.50674
     4.70000    90.00000    38.68417     3.50685    90.00000    51.31583     3.50685
     4.80000    90.00000    38.68443     3.50696    90.00000    51.31557     3.50696
     4.90000    90.00000    38.68468     3.50707    90.00000    51.31532     3.50707
     5.00000    90.00000    38.68493     3.50718    90.00000    51.31507     3.50718
     5.10000    90.00000    38.68518     3.50728    90.00000    51.31482     3.50728
     5.20000    90.00000    38.68544     3.50739    90.00000    51.31456     3.50739
     5.30000    90.00000    38.68569     3.50750    90.00000    51.31431     3.50750
     5.40000    90.00000    38.68594     3.50761    90.00000    51.31406     3.50761
     5.50000    90.00000    38.68619     3.50771    90.00000    51.31381     3.50771
     5.60000    90.00000    38.68645     3.50782    90.00000    51.31355     3.50782
     5.70000    90.00000    38.68670     3.50793    90.00000    51.31330     3.50793
     5.80000    90.00000    38.68695     3.50804    90.00000    51.31305     3.50804
     5.90000    90.00000    38.68720     3.50815    90.00000    51.31280     3.50815
     6.00000    90.00000    38.68746     3.50825    90.00000    51.31254     3.50825
     6.10000    90.00000    38.68771     3.50836    90.00000    51.31229     3.50836
     6.20000    90.00000    38.68796     3.50847    90.00000    51.31204     3.50847
     6.30000    90.00000    38.68821     3.50858    90.00000    51.31179     3.50858
     6.40000    90.00000    38.68847     3.50868    90.00000    51.31153     3.50868
     6.50000    90.00000    38.68872     3.50879    90.00000    51.31128     3.50879
     6.60000    90.00000    38.68897     3.50890    90.00000    51.31103     3.50890
     6.70000    90.00000    38.68922     3.50901    90.00000    51.31078     3.50901
     6.80000    90.00000    38.68947     3.50911    90.00000    51.31053     3.50911
     6.90000    90.00000    38.68973     3.50922    90.00000    51.31027     3.50922
     7.00000    90.00000    38.68998     3.50933    90.00000    51.31002     3.50933
     7.10000    90.00000    38.69023     3.50944    90.00000    51.30977     3.50944
     7.20000    90.00000    38.69048     3.50954    90.00000    51.30952     3.50954
     7.30000    90.00000    38.69073     3.50965    90.00000    51.30927     3.50965
     7.40000    90.00000    38.69098     3.50976    90.00000    51.30902     3.50976
     7.50000    90.00000    38.69124     3.50986    90.00000    51.30876     3.50986
     7.60000    90.00000    38.69149     3.50997    90.00000    51.30851     3.50997
     7.70000    90.00000    38.69174     3.51008    90.00000    51.30826     3.51008
     7.80000    90.00000    38.69199     3.51019    90.00000    51.30801     3.51019
     7.90000    90.00000    38.69224     3.51029    90.00000    51.30776     3.51029
     8.00000    90.00000    38.69249     3.51040    90.00000    51.30751     3.51040
     8.10000    90.00000    38.69275     3.51051    90.00000    51.30725     3.51051
     8.20000    90.00000    38.69300     3.51061    90.00000    51.30700     3.51061
     8.30000    90.00000    38.69325     3.51072    90.00000    51.30675     3.51072
     8.40000    90.00000    38.69350     3.51083    90.00000    51.30650     3.51083
     8.50000    90.00000    38.69375     3.51093    90.00000    51.30625     3.51093
     8.60000    90.00000    38.69400     3.51104    90.00000    51.30600     3.51104
     8.70000    90.00000    38.69425     3.51115    90.00000    51.30575     3.51115
     8.80000    90.00000    38.69450     3.51126    90.00000    51.30550     3.51126
     8.90000    90.00000    38.69476     3.51136    90.00000    51.30524     3.51136
     9.00000    90.00000    38.69501     3.51147    90.00000    51.30499     3.51147
     9.10000    90.00000    38.69526     3.51158    90.00000    51.30474     3.51158
     9.20000    90.00000    38.69551     3.51168    90.00000    51.30449     3.51168
     9.30000    90.00000    38.69576     3.51179    90.00000    51.30424     3.51179
     9.40000    90.00000    38.69601     3.51190    90.00000    51.30399     3.51190
     9.50000    90.00000    38.69626     3.51200    90.00000    51.30374     3.51200
     9.60000    90.00000    38.69651     3.51211    90.00000    51.30349     3.51211
     9.70000    90.00000    38.69676     3.51222    90.00000    51.30324     3.51222
     9.80000    90.00000    38.69701     3.51232    90.00000    51.30299     3.51232
     9.90000    90.00000    38.69726     3.51243    90.00000    51.30274     3.51243
    10.00000    90.00000    38.69751     3.51253    90.00000    51.30249     3.51253
    10.10000    90.00000    38.69777     3.51264    90.00000    51.30223     3.51264
    10.20000    90.00000    38.69802     3.51275    90.00000    51.30198     3.51275
    10.30000    90.00000    38.69827     3.51285    90.00000    51.30173     3.51285
    10.40000    90.00000    38.69852     3.51296    90.00000    51.30148     3.51296
    10.50000    90.00000    38.69877     3.51307    90.00000    51.30123     3.51307
    10.60000    90.00000    38.69902     3.51317    90.00000    51.30098     3.51317
    10.70000    90.00000    38.69927     3.51328    90.00000    51.30073     3.51328
    10.80000    90.00000    38.69952     3.51339    90.00000    51.30048     3.51339
    10.90000    90.00000    38.69977     3.51349    90.00000    51.30023     3.51349
    11.00000    90.00000    38.70002     3.51360    90.00000    51.29998     3.51360
    11.10000    90.00000    38.70027     3.51370    90.00000    51.29973     3.51370
    11.20000    90.00000    38.70052     3.51381    90.00000    51.29948     3.51381
    11.30000    90.00000    38.70077     3.51392    90.00000    51.29923     3.51392
    11.40000    90.00000    38.70102     3.51402    90.00000    51.29898     3.51402
    11.50000    90.00000    38.70127     3.51413    90.00000    51.29873     3.51413
    11.60000    90.00000    38.70152     3.51423    90.00000    51.29848     3.51423
    11.70000    90.00000    38.70177     3.51434    90.00000    51.29823     3.51434
    11.80000    90.00000    38.70202     3.51445    90.00000    51.29798     3.51445
    11.90000    90.00000    38.70227     3.51455    90.00000    51.29773     3.51455
    12.00000    90.00000    38.70252     3.51466    90.00000    51.29748     3.51466
    12.10000    90.00000    38.70277     3.51476    90.00000    51.29723     3.51476
    12.20000    90.00000    38.70302     3.51487    90.00000    51.29698     3.51487
    12.30000    90.00000    38.70327     3.51498    90.00000    51.29673     3.51498
    12.40000    90.00000    38.70352     3.51508    90.00000    51.29648     3.51508
    12.50000    90.00000    38.70377     3.51519    90.00000    51.29623     3.51519
    12.60000    90.00000    38.70402     3.51529    90.00000    51.29598     3.51529
    12.70000    90.00000    38.70427     3.51540    90.00000    51.29573     3.51540
    12.80000    90.00000    38.70451     3.51550    90.00000    51.29549     3.51550
    12.90000    90.00000    38.70476     3.51561    90.00000    51.29524     3.51561
    13.00000    90.00000    38.70501     3.51571    90.00000    51.29499     3.51571
    13.10000    90.00000    38.70526     3.51582    90.00000    51.29474     3.51582
    13.20000    90.00000    38.70551     3.51593    90.00000    51.29449     3.51593
    13.30000    90.00000    38.70576     3.51603    90.00000    51.29424     3.51603
    13.40000    90.00000    38.70601     3.51614    90.00000    51.29399     3.51614
    13.50000    90.00000    38.70626     3.51624    90.00000    51.29374     3.51624
    13.60000    90.00000    38.70651     3.51635    90.00000    51.29349     3.51635
    13.70000    90.00000    38.70676     3.51645    90.00000    51.29324     3.51645
    13.80000    90.00000    38.70701     3.51656    90.00000    51.29299     3.51656
    13.90000    90.00000    38.70726     3.51666    90.00000    51.29274     3.51666
    14.00000    90.00000    38.70750     3.51677    90.00000    51.29250     3.51677
    14.10000    90.00000    38.70775     3.51687    90.00000    51.29225     3.51687
    14.20000    90.00000    38.70800     3.51698    90.00000    51.29200     3.51698
    14.30000    90.00000    38.70825     3.51708    90.00000    51.29175     3.51708
    14.40000    90.00000    38.70850     3.51719    90.00000    51.29150     3.51719
    14.50000    90.00000    38.70875     3.51730    90.00000    51.29125     3.51730
    14.60000    90.00000    38.70900     3.51740    90.00000    51.29100     3.51740
    14.70000    90.00000    38.70925     3.51751    90.00000    51.29075     3.51751
    14.80000    90.00000    38.70949     3.51761    90.00000    51.29051     3.51761
    14.90000    90.00000    38.70974     3.51772    90.00000    51.29026     3.51772
    15.00000    90.00000    38.70999     3.51782    90.00000    51.29001     3.51782
    15.10000    90.00000    38.71024     3.51793    90.00000    51.28976     3.51793
    15.20000    90.00000    38.71049     3.51803    90.00000    51.28951     3.51803
    15.30000    90.00000    38.71074     3.51814    90.00000    51.28926     3.51814
    15.40000    90.00000    38.71099     3.51824    90.00000    51.28901     3.51824
    15.50000    90.00000    38.71123     3.51834    90.00000    51.28877     3.51834
    15.60000    90.00000    38.71148     3.51845    90.00000    51.28852     3.51845
    15.70000    90.00000    38.71173     3.51855    90.00000    51.28827     3.51855
    15.80000    90.00000    38.71198     3.51866    90.00000    51.28802     3.51866
    15.90000    90.00000    38.71223     3.51876    90.00000    51.28777     3.51876
    16.00000    90.00000    38.71247     3.51887    90.00000    51.28753     3.51887
    16.10000    90.00000    38.71272     3.51897    90.00000    51.28728     3.51897
    16.20000    90.00000    38.71297     3.51908    90.00000    51.28703     3.51908
    16.30000    90.00000    38.71322     3.51918    90.00000    51.28678     3.51918
    16.40000    90.00000    38.71347     3.51929    90.00000    51.28653     3.51929
    16.50000    90.00000    38.71371     3.51939    90.00000    51.28629     3.51939
    16.60000    90.00000    38.71396     3.51950    90.00000    51.28604     3.51950
    16.70000    90.00000    38.71421     3.51960    90.00000    51.28579     3.51960
    16.80000    90.00000    38.71446     3.51971    90.00000    51.28554     3.51971
    16.90000    90.00000    38.71470     3.51981    90.00000    51.28530     3.51981
    17.00000    90.00000    38.71495     3.51991    90.00000    51.28505     3.51991
    17.10000    90.00000    38.71520     3.52002    90.00000    51.28480     3.52002
    17.20000    90.00000    38.71545     3.52012    90.00000    51.28455     3.52012
    17.30000    90.00000    38.71570     3.52023    90.00000    51.28430     3.52023
    17.40000    90.00000    38.71594     3.52033    90.00000    51.28406     3.52033
    17.50000    90.00000    38.71619     3.52044    90.00000    51.28381     3.52044
    17.60000    90.00000    38.71644     3.52054    90.00000    51.28356     3.52054
    17.70000    90.00000    38.71668     3.52064    90.00000    51.28332     3.52064
    17.80000    90.00000    38.71693     3.52075    90.00000    51.28307     3.52075
    17.90000    90.00000    38.71718     3.52085    90.00000    51.28282     3.52085
    18.00000    90.00000    38.71743     3.52096    90.00000    51.28257     3.52096
    18.10000    90.00000    38.71767     3.52106    90.00000    51.28233     3.52106
    18.20000    90.00000    38.71792     3.52116    90.00000    51.28208     3.52116
    18.30000    90.00000    38.71817     3.52127    90.00000    51.28183     3.52127
    18.40000    90.00000    38.71842     3.52137    90.00000    51.28158     3.52137
    18.50000    90.00000    38.71866     3.52148    90.00000    51.28134     3.52148
    18.60000    90.00000    38.71891     3.52158    90.00000    51.28109     3.52158
    18.70000    90.00000    38.71916     3.52168    90.00000    51.28084     3.52168
    18.80000    90.00000    38.71940     3.52179    90.00000    51.28060     3.52179
    18.90000    90.00000    38.71965     3.52189    90.00000    51.28035     3.52189
    19.00000    90.00000    38.71990     3.52200    90.00000    51.28010     3.52200
    19.10000    90.00000    38.72014     3.52210    90.00000    51.27986     3.52210
    19.20000    90.00000    38.72039     3.52220    90.00000    51.27961     3.52220
    19.30000    90.00000    38.72064     3.52231    90.00000    51.27936     3.52231
    19.40000    90.00000    38.72088     3.52241    90.00000    51.27912     3.52241
    19.50000    90.00000    38.72113     3.52252    90.00000    51.27887     3.52252
    19.60000    90.00000    38.72138     3.52262    90.00000    51.27862     3.52262
    19.70000    90.00000    38.72162     3.52272    90.00000    51.27838     3.52272
    19.80000    90.00000    38.72187     3.52283    90.00000    51.27813     3.52283
    19.90000    90.00000    38.72212     3.52293    90.00000    51.27788     3.52293
    20.00000    90.00000    38.72236     3.52303    90.00000    51.27764     3.52303
    20.10000    90.00000    38.72261     3.52314    90.00000    51.27739     3.52314
    20.20000    90.00000    38.72285     3.52324    90.00000    51.27715     3.52324
    20.30000    90.00000    38.72310     3.52334    90.00000    51.27690     3.52334
    20.40000    90.00000    38.72335     3.52345    90.00000    51.27665     3.52345
    20.50000    90.00000    38.72359     3.52355    90.00000    51.27641     3.52355
    20.60000    90.00000    38.72384     3.52365    90.00000    51.27616     3.52365
    20.70000    90.00000    38.72409     3.52376    90.00000    51.27591     3.52376
    20.80000    90.00000    38.72433     3.52386    90.00000    51.27567     3.52386
    20.90000    90.00000    38.72458     3.52396    90.00000    51.27542     3.52396
    21.00000    90.00000    38.72482     3.52407    90.00000    51.27518     3.52407
    21.10000    90.00000    38.72507     3.52417    90.00000    51.27493     3.52417
    21.20000    90.00000    38.72532     3.52427    90.00000    51.27468     3.52427
    21.30000    90.00000    38.72556     3.52438    90.00000    51.27444     3.52438
    21.40000    90.00000    38.72581     3.52448    90.00000    51.27419     3.52448
    21.50000    90.00000    38.72605     3.52458    90.00000    51.27395     3.52458
    21.60000    90.00000    38.72630     3.52469    90.00000    51.27370     3.52469
    21.70000    90.00000    38.72654     3.52479    90.00000    51.27346     3.52479
    21.80000    90.00000    38.72679     3.52489    90.00000    51.27321     3.52489
    21.90000    90.00000    38.72704     3.52500    90.00000    51.27296     3.52500
    22.00000    90.00000    38.72728     3.52510    90.00000    51.27272     3.52510
    22.10000    90.00000    38.72753     3.52520    90.00000    51.27247     3.52520
    22.20000    90.00000    38.72777     3.52530    90.00000    51.27223     3.52530
    22.30000    90.00000    38.72802     3.52541    90.00000    51.27198     3.52541
    22.40000    90.00000    38.72826     3.52551    90.00000    51.27174     3.52551
    22.50000    90.00000    38.72851     3.52561    90.00000    51.27149     3.52561
    22.60000    90.00000    38.72875     3.52572    90.00000    51.27125     3.52572
    22.70000    90.00000    38.72900     3.52582    90.00000    51.27100     3.52582
    22.80000    90.00000    38.72924     3.52592    90.00000    51.27076     3.52592
    22.90000    90.00000    38.72949     3.52602    90.00000    51.27051     3.52602
    23.00000    90.00000    38.72973     3.52613    90.00000    51.27027     3.52613
    23.10000    90.00000    38.72998     3.52623    90.00000    51.27002     3.52623
    23.20000    90.00000    38.73022     3.52633    90.00000    51.26978     3.52633
    23.30000    90.00000    38.73047     3.52643    90.00000    51.26953     3.52643
