 # applied field (T), theta (degree), phi (degree), abs for RE 3-4
     0.00000     0.00000     0.00000     0.27092     0.00000     0.00000     0.27092
     0.10000     0.10170   180.00000     0.27092     0.04688   360.00000     0.27092
     0.20000     0.25565   180.00000     0.27094     0.09045   360.00000     0.27092
     0.30000     0.35729   180.00000     0.27095     0.13734   360.00000     0.27093
     0.40000     0.51110   180.00000     0.27098     0.18092   360.00000     0.27094
     0.50000     0.61260   180.00000     0.27100     0.22783   360.00000     0.27094
     0.60000     0.71402   180.00000     0.27103     0.27475   360.00000     0.27095
     0.70000     0.86745   180.00000     0.27108     0.31838   360.00000     0.27096
     0.80000     0.96861   180.00000     0.27112     0.36532   360.00000     0.27097
     0.90000     1.12163   180.00000     0.27119     0.40900   360.00000     0.27099
     1.00000     1.22245   180.00000     0.27124     0.45599   360.00000     0.27100
     1.10000     1.32311   180.00000     0.27130     0.50300   360.00000     0.27101
     1.20000     1.47536   180.00000     0.27139     0.54677   360.00000     0.27104
     1.30000     1.57557   180.00000     0.27146     0.59383   360.00000     0.27105
     1.40000     1.67557   180.00000     0.27153     0.64091   360.00000     0.27107
     1.50000     1.82683   180.00000     0.27165     0.68481   360.00000     0.27110
     1.60000     1.92626   180.00000     0.27173     0.73196   360.00000     0.27112
     1.70000     2.07669   180.00000     0.27186     0.77596   360.00000     0.27115
     1.80000     2.17547   180.00000     0.27195     0.82319   360.00000     0.27117
     1.90000     2.27396   180.00000     0.27206     0.87044   360.00000     0.27120
     2.00000     2.42303   180.00000     0.27221     0.91462   360.00000     0.27123
     2.10000     2.52077   180.00000     0.27232     0.96196   360.00000     0.27126
     2.20000     2.66874   180.00000     0.27248     1.00627   360.00000     0.27130
     2.30000     2.76565   180.00000     0.27261     1.05372   360.00000     0.27133
     2.40000     2.86218   180.00000     0.27273     1.10121   360.00000     0.27136
     2.50000     3.00843   180.00000     0.27292     1.14573   360.00000     0.27141
     2.60000     3.10402   180.00000     0.27306     1.19333   360.00000     0.27144
     2.70000     3.24893   180.00000     0.27326     1.23803   360.00000     0.27149
     2.80000     3.34350   180.00000     0.27341     1.28575   360.00000     0.27153
     2.90000     3.43763   180.00000     0.27357     1.33353   360.00000     0.27157
     3.00000     3.58046   180.00000     0.27379     1.37848   360.00000     0.27162
     3.10000     3.67346   180.00000     0.27396     1.42639   360.00000     0.27166
     3.20000     3.76597   180.00000     0.27413     1.47436   360.00000     0.27170
     3.30000     3.90652   180.00000     0.27437     1.51960   360.00000     0.27176
     3.40000     3.99781   180.00000     0.27455     1.56772   360.00000     0.27181
     3.50000     4.13664   180.00000     0.27481     1.61319   360.00000     0.27187
     3.60000     4.22664   180.00000     0.27500     1.66146   360.00000     0.27192
     3.70000     4.31607   180.00000     0.27520     1.70979   360.00000     0.27197
     3.80000     4.45229   180.00000     0.27548     1.75559   360.00000     0.27204
     3.90000     4.54034   180.00000     0.27568     1.80410   360.00000     0.27209
     4.00000     4.62778   180.00000     0.27589     1.85268   360.00000     0.27214
     4.10000     4.76120   180.00000     0.27619     1.89884   360.00000     0.27222
     4.20000     4.84716   180.00000     0.27641     1.94760   360.00000     0.27227
     4.30000     4.93247   180.00000     0.27663     1.99643   360.00000     0.27232
     4.40000     5.06292   180.00000     0.27695     2.04298   360.00000     0.27241
     4.50000     5.14666   180.00000     0.27719     2.09201   360.00000     0.27246
     4.60000     5.27490   180.00000     0.27752     2.13885   360.00000     0.27255
     4.70000     5.35701   180.00000     0.27777     2.18808   360.00000     0.27261
     4.80000     5.43840   180.00000     0.27801     2.23740   360.00000     0.27267
     4.90000     5.56338   180.00000     0.27837     2.28466   360.00000     0.27276
     5.00000     5.64305   180.00000     0.27862     2.33420   360.00000     0.27283
     5.10000     5.72198   180.00000     0.27888     2.38382   360.00000     0.27289
     5.20000     5.84352   180.00000     0.27926     2.43154   360.00000     0.27299
     5.30000     5.92065   180.00000     0.27953     2.48139   360.00000     0.27306
     5.40000     5.99699   180.00000     0.27980     2.53134   360.00000     0.27312
     5.50000     6.11495   180.00000     0.28019     2.57954   360.00000     0.27323
     5.60000     6.18941   180.00000     0.28047     2.62973   360.00000     0.27330
     5.70000     6.26306   180.00000     0.28076     2.68001   360.00000     0.27337
     5.80000     6.37727   180.00000     0.28117     2.72872   360.00000     0.27348
     5.90000     6.44896   180.00000     0.28146     2.77925   360.00000     0.27355
     6.00000     6.51980   180.00000     0.28176     2.82990   360.00000     0.27363
     6.10000     6.63012   180.00000     0.28219     2.87913   360.00000     0.27374
     6.20000     6.69894   180.00000     0.28249     2.93003   360.00000     0.27382
     6.30000     6.76688   180.00000     0.28280     2.98105   360.00000     0.27390
     6.40000     6.87318   180.00000     0.28325     3.03083   360.00000     0.27401
     6.50000     6.93901   180.00000     0.28356     3.08212   360.00000     0.27410
     6.60000     7.00395   180.00000     0.28389     3.13352   360.00000     0.27418
     6.70000     7.10609   180.00000     0.28434     3.18389   360.00000     0.27430
     6.80000     7.16886   180.00000     0.28468     3.23558   360.00000     0.27439
     6.90000     7.23070   180.00000     0.28501     3.28738   360.00000     0.27448
     7.00000     7.32856   180.00000     0.28548     3.33834   360.00000     0.27460
     7.10000     7.38817   180.00000     0.28582     3.39045   360.00000     0.27469
     7.20000     7.44682   180.00000     0.28617     3.44268   360.00000     0.27478
     7.30000     7.54028   180.00000     0.28666     3.49426   360.00000     0.27492
     7.40000     7.59664   180.00000     0.28701     3.54680   360.00000     0.27501
     7.50000     7.65202   180.00000     0.28736     3.59946   360.00000     0.27510
     7.60000     7.70641   180.00000     0.28772     3.65226   360.00000     0.27520
     7.70000     7.79400   180.00000     0.28823     3.70467   360.00000     0.27534
     7.80000     7.84603   180.00000     0.28859     3.75779   360.00000     0.27543
     7.90000     7.89705   180.00000     0.28896     3.81104   360.00000     0.27553
     8.00000     7.97999   180.00000     0.28948     3.86413   360.00000     0.27568
     8.10000     8.02859   180.00000     0.28986     3.91772   360.00000     0.27578
     8.20000     8.07616   180.00000     0.29023     3.97144   360.00000     0.27588
     8.30000     8.12269   180.00000     0.29061     4.02530   360.00000     0.27598
     8.40000     8.19945   180.00000     0.29115     4.07929   360.00000     0.27613
     8.50000     8.24350   180.00000     0.29154     4.13350   360.00000     0.27624
     8.60000     8.28649   180.00000     0.29192     4.18785   360.00000     0.27634
     8.70000     8.35839   180.00000     0.29247     4.24257   360.00000     0.27650
     8.80000     8.39885   180.00000     0.29287     4.29728   360.00000     0.27661
     8.90000     8.43824   180.00000     0.29327     4.35214   360.00000     0.27672
     9.00000     8.47654   180.00000     0.29366     4.40714   360.00000     0.27683
     9.10000     8.54199   180.00000     0.29423     4.46283   360.00000     0.27699
     9.20000     8.57771   180.00000     0.29463     4.51821   360.00000     0.27710
     9.30000     8.61233   180.00000     0.29504     4.57374   360.00000     0.27722
     9.40000     8.64584   180.00000     0.29545     4.62942   360.00000     0.27733
     9.50000     8.70472   180.00000     0.29603     4.68611   360.00000     0.27750
     9.60000     8.73560   180.00000     0.29644     4.74218   360.00000     0.27762
     9.70000     8.76535   180.00000     0.29686     4.79841   360.00000     0.27773
     9.80000     8.79398   180.00000     0.29728     4.85480   360.00000     0.27785
     9.90000     8.84615   180.00000     0.29787     4.91252   360.00000     0.27803
    10.00000     8.87210   180.00000     0.29829     4.96931   360.00000     0.27815
    10.10000     8.89690   180.00000     0.29871     5.02626   360.00000     0.27827
    10.20000     8.92055   180.00000     0.29914     5.08338   360.00000     0.27839
    10.30000     8.96592   180.00000     0.29974     5.14217   360.00000     0.27857
    10.40000     8.98684   180.00000     0.30017     5.19970   360.00000     0.27870
    10.50000     9.00661   180.00000     0.30061     5.25740   360.00000     0.27883
    10.60000     9.02520   180.00000     0.30104     5.31527   360.00000     0.27895
    10.70000     9.04263   180.00000     0.30148     5.37331   360.00000     0.27908
    10.80000     9.07948   180.00000     0.30209     5.43347   360.00000     0.27927
    10.90000     9.09413   180.00000     0.30253     5.49193   360.00000     0.27940
    11.00000     9.10760   180.00000     0.30297     5.55058   360.00000     0.27953
    11.10000     9.11989   180.00000     0.30341     5.60940   360.00000     0.27966
    11.20000     9.13098   180.00000     0.30386     5.66840   360.00000     0.27980
    11.30000     9.15916   180.00000     0.30448     5.72997   360.00000     0.27999
    11.40000     9.16743   180.00000     0.30493     5.78941   360.00000     0.28013
    11.50000     9.17450   180.00000     0.30538     5.84904   360.00000     0.28026
    11.60000     9.18037   180.00000     0.30583     5.90885   360.00000     0.28040
    11.70000     9.18502   180.00000     0.30628     5.96885   360.00000     0.28054
    11.80000     9.20441   180.00000     0.30691     6.03188   360.00000     0.28074
    11.90000     9.20620   180.00000     0.30736     6.09234   360.00000     0.28088
    12.00000     9.20677   180.00000     0.30782     6.15299   360.00000     0.28102
    12.10000     9.20612   180.00000     0.30827     6.21382   360.00000     0.28116
    12.20000     9.20424   180.00000     0.30873     6.27485   360.00000     0.28131
    12.30000     9.21471   180.00000     0.30937     6.33940   360.00000     0.28152
    12.40000     9.20993   180.00000     0.30983     6.40091   360.00000     0.28166
    12.50000     9.20391   180.00000     0.31029     6.46261   360.00000     0.28181
    12.60000     9.19666   180.00000     0.31075     6.52451   360.00000     0.28195
    12.70000     9.18816   180.00000     0.31121     6.58661   360.00000     0.28210
    12.80000     9.17842   180.00000     0.31167     6.64891   360.00000     0.28225
    12.90000     9.16743   180.00000     0.31213     6.71141   360.00000     0.28240
    13.00000     9.16548   180.00000     0.31277     6.77812   360.00000     0.28262
    13.10000     9.15153   180.00000     0.31324     6.84112   360.00000     0.28277
    13.20000     9.13633   180.00000     0.31370     6.90432   360.00000     0.28292
    13.30000     9.11988   180.00000     0.31416     6.96774   360.00000     0.28307
    13.40000     9.10216   180.00000     0.31463     7.03136   360.00000     0.28323
    13.50000     9.08317   180.00000     0.31509     7.09519   360.00000     0.28338
    13.60000     9.06292   180.00000     0.31555     7.15924   360.00000     0.28354
    13.70000     9.04834   180.00000     0.31620     7.22821   360.00000     0.28376
    13.80000     9.02509   180.00000     0.31667     7.29277   360.00000     0.28392
    13.90000     9.00056   180.00000     0.31713     7.35756   360.00000     0.28408
    14.00000     8.97476   180.00000     0.31760     7.42256   360.00000     0.28424
    14.10000     8.94767   180.00000     0.31806     7.48778   360.00000     0.28440
    14.20000     8.91930   180.00000     0.31852     7.55322   360.00000     0.28456
    14.30000     8.88964   180.00000     0.31899     7.61888   360.00000     0.28472
    14.40000     8.85869   180.00000     0.31945     7.68476   360.00000     0.28489
    14.50000     8.82645   180.00000     0.31992     7.75087   360.00000     0.28505
    14.60000     8.79291   180.00000     0.32038     7.81721   360.00000     0.28521
    14.70000     8.76027   180.00000     0.32103     7.88953   360.00000     0.28545
    14.80000     8.72368   180.00000     0.32149     7.95642   360.00000     0.28562
    14.90000     8.68578   180.00000     0.32196     8.02355   360.00000     0.28578
    15.00000     8.64657   180.00000     0.32242     8.09090   360.00000     0.28595
    15.10000     8.60606   180.00000     0.32288     8.15849   360.00000     0.28612
    15.20000     8.56424   180.00000     0.32334     8.22632   360.00000     0.28629
    15.30000     8.52111   180.00000     0.32380     8.29438   360.00000     0.28646
    15.40000     8.47666   180.00000     0.32426     8.36269   360.00000     0.28663
    15.50000     8.43089   180.00000     0.32472     8.43123   360.00000     0.28680
    15.60000     8.38380   180.00000     0.32518     8.50001   360.00000     0.28697
    15.70000     8.33538   180.00000     0.32563     8.56904   360.00000     0.28715
    15.80000     8.28565   180.00000     0.32609     8.63831   360.00000     0.28732
    15.90000     8.23458   180.00000     0.32655     8.70783   360.00000     0.28750
    16.00000     8.18218   180.00000     0.32700     8.77760   360.00000     0.28767
    16.10000     8.12845   180.00000     0.32745     8.84761   360.00000     0.28785
    16.20000     8.07338   180.00000     0.32791     8.91788   360.00000     0.28802
    16.30000     8.01151   180.00000     0.32855     8.99594   360.00000     0.28828
    16.40000     7.95328   180.00000     0.32900     9.06683   360.00000     0.28846
    16.50000     7.89371   180.00000     0.32945     9.13798   360.00000     0.28864
    16.60000     7.83280   180.00000     0.32989     9.20939   360.00000     0.28882
    16.70000     7.77053   180.00000     0.33034     9.28106   360.00000     0.28900
    16.80000     7.70691   180.00000     0.33079     9.35299   360.00000     0.28918
    16.90000     7.64194   180.00000     0.33123     9.42519   360.00000     0.28936
    17.00000     7.57561   180.00000     0.33167     9.49765   360.00000     0.28954
    17.10000     7.50791   180.00000     0.33212     9.57038   360.00000     0.28973
    17.20000     7.43886   180.00000     0.33256     9.64338   360.00000     0.28991
    17.30000     7.36843   180.00000     0.33299     9.71666   360.00000     0.29009
    17.40000     7.29664   180.00000     0.33343     9.79021   360.00000     0.29028
    17.50000     7.22347   180.00000     0.33387     9.86403   360.00000     0.29047
    17.60000     7.14893   180.00000     0.33430     9.93813   360.00000     0.29065
    17.70000     7.07301   180.00000     0.33473    10.01252   360.00000     0.29084
    17.80000     6.99570   180.00000     0.33516    10.08718   360.00000     0.29103
    17.90000     6.91702   180.00000     0.33559    10.16213   360.00000     0.29122
    18.00000     6.83695   180.00000     0.33602    10.23737   360.00000     0.29141
    18.10000     6.75548   180.00000     0.33645    10.31290   360.00000     0.29160
    18.20000     6.67263   180.00000     0.33687    10.38871   360.00000     0.29179
    18.30000     6.58838   180.00000     0.33729    10.46482   360.00000     0.29198
    18.40000     6.50272   180.00000     0.33771    10.54123   360.00000     0.29217
    18.50000     6.41567   180.00000     0.33813    10.61793   360.00000     0.29236
    18.60000     6.32721   180.00000     0.33854    10.69493   360.00000     0.29256
    18.70000     6.25440   180.00000     0.33878    10.76176   360.00000     0.29267
    18.80000     6.16361   180.00000     0.33919    10.83924   360.00000     0.29286
    18.90000     6.07141   180.00000     0.33960    10.91702   360.00000     0.29305
    19.00000     5.97779   180.00000     0.34001    10.99511   360.00000     0.29325
    19.10000     5.88276   180.00000     0.34041    11.07351   360.00000     0.29345
    19.20000     5.78630   180.00000     0.34082    11.15222   360.00000     0.29364
    19.30000     5.68841   180.00000     0.34122    11.23125   360.00000     0.29384
    19.40000     5.58909   180.00000     0.34162    11.31060   360.00000     0.29404
    19.50000     5.48834   180.00000     0.34201    11.39026   360.00000     0.29424
    19.60000     5.38615   180.00000     0.34240    11.47025   360.00000     0.29443
    19.70000     5.28252   180.00000     0.34279    11.55057   360.00000     0.29463
    19.80000     5.17745   180.00000     0.34318    11.63121   360.00000     0.29483
    19.90000     5.07092   180.00000     0.34357    11.71219   360.00000     0.29503
    20.00000     4.96295   180.00000     0.34395    11.79350   360.00000     0.29523
    20.10000     4.85353   180.00000     0.34433    11.87514   360.00000     0.29544
    20.20000     4.74264   180.00000     0.34471    11.95713   360.00000     0.29564
    20.30000     4.63030   180.00000     0.34508    12.03945   360.00000     0.29584
    20.40000     4.54186   180.00000     0.34529    12.10935   360.00000     0.29596
    20.50000     4.42708   180.00000     0.34566    12.19222   360.00000     0.29616
    20.60000     4.31084   180.00000     0.34603    12.27544   360.00000     0.29636
    20.70000     4.19312   180.00000     0.34639    12.35901   360.00000     0.29657
    20.80000     4.07392   180.00000     0.34676    12.44294   360.00000     0.29677
    20.90000     3.95324   180.00000     0.34711    12.52723   360.00000     0.29698
    21.00000     3.83108   180.00000     0.34747    12.61188   360.00000     0.29718
    21.10000     3.70742   180.00000     0.34782    12.69689   360.00000     0.29739
    21.20000     3.58227   180.00000     0.34817    12.78227   360.00000     0.29760
    21.30000     3.45562   180.00000     0.34852    12.86802   360.00000     0.29781
    21.40000     3.35779   180.00000     0.34871    12.93992   360.00000     0.29792
    21.50000     3.22865   180.00000     0.34905    13.02626   360.00000     0.29813
    21.60000     3.09800   180.00000     0.34939    13.11299   360.00000     0.29834
    21.70000     2.96584   180.00000     0.34972    13.20010   360.00000     0.29855
    21.80000     2.83217   180.00000     0.35005    13.28759   360.00000     0.29876
    21.90000     2.69697   180.00000     0.35038    13.37547   360.00000     0.29897
    22.00000     2.56024   180.00000     0.35070    13.46375   360.00000     0.29918
    22.10000     2.42199   180.00000     0.35102    13.55242   360.00000     0.29939
    22.20000     2.28220   180.00000     0.35134    13.64149   360.00000     0.29960
    22.30000     2.17574   180.00000     0.35151    13.71535   360.00000     0.29972
    22.40000     2.03341   180.00000     0.35182    13.80507   360.00000     0.29993
    22.50000     1.88953   180.00000     0.35213    13.89520   360.00000     0.30014
    22.60000     1.74410   180.00000     0.35243    13.98574   360.00000     0.30036
    22.70000     1.59712   180.00000     0.35273    14.07669   360.00000     0.30057
    22.80000     1.44858   180.00000     0.35303    14.16807   360.00000     0.30078
    22.90000     1.29849   180.00000     0.35332    14.25987   360.00000     0.30099
    23.00000     1.18523   180.00000     0.35348    14.33536   360.00000     0.30112
    23.10000     1.03254   180.00000     0.35376    14.42785   360.00000     0.30133
    23.20000     0.87827   180.00000     0.35404    14.52077   360.00000     0.30154
    23.30000     0.72243   180.00000     0.35432    14.61413   360.00000     0.30176
