 # applied field (T), theta (degree), phi (degree), abs for RE 1-2
     0.00000    90.00000   219.74544     3.62780    90.00000   229.43000     3.61263
     0.10000    90.00000   193.69553     4.38943    90.00000   198.03407     3.47116
     0.20000    90.00000   180.00000     4.51431    90.00000   180.00000     3.44593
     0.30000    90.00000   180.00000     4.51420    90.00000   180.00000     3.44592
     0.40000    90.00000   180.00000     4.51408    90.00000   180.00000     3.44591
     0.50000    90.00000   180.00000     4.51397    90.00000   180.00000     3.44590
     0.60000    90.00000   180.00000     4.51386    90.00000   180.00000     3.44590
     0.70000    90.00000   180.00000     4.51374    90.00000   180.00000     3.44589
     0.80000    90.00000   180.00000     4.51363    90.00000   180.00000     3.44588
     0.90000    90.00000   180.00000     4.51351    90.00000   180.00000     3.44587
     1.00000    90.00000   180.00000     4.51340    90.00000   180.00000     3.44586
     1.10000    90.00000   180.00000     4.51328    90.00000   180.00000     3.44586
     1.20000    90.00000   180.00000     4.51317    90.00000   180.00000     3.44585
     1.30000    90.00000   180.00000     4.51305    90.00000   180.00000     3.44584
     1.40000    90.00000   180.00000     4.51294    90.00000   180.00000     3.44583
     1.50000    90.00000   180.00000     4.51282    90.00000   180.00000     3.44582
     1.60000    90.00000   180.00000     4.51271    90.00000   180.00000     3.44582
     1.70000    90.00000   180.00000     4.51259    90.00000   180.00000     3.44581
     1.80000    90.00000   180.00000     4.51248    90.00000   180.00000     3.44580
     1.90000    90.00000   180.00000     4.51237    90.00000   180.00000     3.44579
     2.00000    90.00000   180.00000     4.51225    90.00000   180.00000     3.44578
     2.10000    90.00000   180.00000     4.51214    90.00000   180.00000     3.44578
     2.20000    90.00000   180.00000     4.51202    90.00000   180.00000     3.44577
     2.30000    90.00000   180.00000     4.51191    90.00000   180.00000     3.44576
     2.40000    90.00000   180.00000     4.51179    90.00000   180.00000     3.44575
     2.50000    90.00000   180.00000     4.51168    90.00000   180.00000     3.44574
     2.60000    90.00000   180.00000     4.51156    90.00000   180.00000     3.44573
     2.70000    90.00000   180.00000     4.51145    90.00000   180.00000     3.44573
     2.80000    90.00000   180.00000     4.51133    90.00000   180.00000     3.44572
     2.90000    90.00000   180.00000     4.51122    90.00000   180.00000     3.44571
     3.00000    90.00000   180.00000     4.51110    90.00000   180.00000     3.44570
     3.10000    90.00000   180.00000     4.51099    90.00000   180.00000     3.44569
     3.20000    90.00000   180.00000     4.51087    90.00000   180.00000     3.44568
     3.30000    90.00000   180.00000     4.51076    90.00000   180.00000     3.44568
     3.40000    90.00000   180.00000     4.51064    90.00000   180.00000     3.44567
     3.50000    90.00000   180.00000     4.51053    90.00000   180.00000     3.44566
     3.60000    90.00000   180.00000     4.51042    90.00000   180.00000     3.44565
     3.70000    90.00000   180.00000     4.51030    90.00000   180.00000     3.44564
     3.80000    90.00000   180.00000     4.51019    90.00000   180.00000     3.44563
     3.90000    90.00000   180.00000     4.51007    90.00000   180.00000     3.44562
     4.00000    90.00000   180.00000     4.50996    90.00000   180.00000     3.44562
     4.10000    90.00000   180.00000     4.50984    90.00000   180.00000     3.44561
     4.20000    90.00000   180.00000     4.50973    90.00000   180.00000     3.44560
     4.30000    90.00000   180.00000     4.50961    90.00000   180.00000     3.44559
     4.40000    90.00000   180.00000     4.50950    90.00000   180.00000     3.44558
     4.50000    90.00000   180.00000     4.50938    90.00000   180.00000     3.44557
     4.60000    90.00000   180.00000     4.50927    90.00000   180.00000     3.44556
     4.70000    90.00000   180.00000     4.50915    90.00000   180.00000     3.44555
     4.80000    90.00000   180.00000     4.50904    90.00000   180.00000     3.44555
     4.90000    90.00000   180.00000     4.50892    90.00000   180.00000     3.44554
     5.00000    90.00000   180.00000     4.50881    90.00000   180.00000     3.44553
     5.10000    90.00000   180.00000     4.50869    90.00000   180.00000     3.44552
     5.20000    90.00000   180.00000     4.50858    90.00000   180.00000     3.44551
     5.30000    90.00000   180.00000     4.50846    90.00000   180.00000     3.44550
     5.40000    90.00000   180.00000     4.50835    90.00000   180.00000     3.44549
     5.50000    90.00000   180.00000     4.50824    90.00000   180.00000     3.44548
     5.60000    90.00000   180.00000     4.50812    90.00000   180.00000     3.44548
     5.70000    90.00000   180.00000     4.50801    90.00000   180.00000     3.44547
     5.80000    90.00000   180.00000     4.50789    90.00000   180.00000     3.44546
     5.90000    90.00000   180.00000     4.50778    90.00000   180.00000     3.44545
     6.00000    90.00000   180.00000     4.50766    90.00000   180.00000     3.44544
     6.10000    90.00000   180.00000     4.50755    90.00000   180.00000     3.44543
     6.20000    90.00000   180.00000     4.50743    90.00000   180.00000     3.44542
     6.30000    90.00000   180.00000     4.50732    90.00000   180.00000     3.44541
     6.40000    90.00000   180.00000     4.50720    90.00000   180.00000     3.44540
     6.50000    90.00000   180.00000     4.50709    90.00000   180.00000     3.44539
     6.60000    90.00000   180.00000     4.50697    90.00000   180.00000     3.44539
     6.70000    90.00000   180.00000     4.50686    90.00000   180.00000     3.44538
     6.80000    90.00000   180.00000     4.50674    90.00000   180.00000     3.44537
     6.90000    90.00000   180.00000     4.50663    90.00000   180.00000     3.44536
     7.00000    90.00000   180.00000     4.50651    90.00000   180.00000     3.44535
     7.10000    90.00000   180.00000     4.50640    90.00000   180.00000     3.44534
     7.20000    90.00000   180.00000     4.50628    90.00000   180.00000     3.44533
     7.30000    90.00000   180.00000     4.50617    90.00000   180.00000     3.44532
     7.40000    90.00000   180.00000     4.50605    90.00000   180.00000     3.44531
     7.50000    90.00000   180.00000     4.50594    90.00000   180.00000     3.44530
     7.60000    90.00000   180.00000     4.50582    90.00000   180.00000     3.44529
     7.70000    90.00000   180.00000     4.50571    90.00000   180.00000     3.44528
     7.80000    90.00000   180.00000     4.50559    90.00000   180.00000     3.44527
     7.90000    90.00000   180.00000     4.50548    90.00000   180.00000     3.44527
     8.00000    90.00000   180.00000     4.50536    90.00000   180.00000     3.44526
     8.10000    90.00000   180.00000     4.50525    90.00000   180.00000     3.44525
     8.20000    90.00000   180.00000     4.50513    90.00000   180.00000     3.44524
     8.30000    90.00000   180.00000     4.50502    90.00000   180.00000     3.44523
     8.40000    90.00000   180.00000     4.50490    90.00000   180.00000     3.44522
     8.50000    90.00000   180.00000     4.50479    90.00000   180.00000     3.44521
     8.60000    90.00000   180.00000     4.50468    90.00000   180.00000     3.44520
     8.70000    90.00000   180.00000     4.50456    90.00000   180.00000     3.44519
     8.80000    90.00000   180.00000     4.50445    90.00000   180.00000     3.44518
     8.90000    90.00000   180.00000     4.50433    90.00000   180.00000     3.44517
     9.00000    90.00000   180.00000     4.50422    90.00000   180.00000     3.44516
     9.10000    90.00000   180.00000     4.50410    90.00000   180.00000     3.44515
     9.20000    90.00000   180.00000     4.50399    90.00000   180.00000     3.44514
     9.30000    90.00000   180.00000     4.50387    90.00000   180.00000     3.44513
     9.40000    90.00000   180.00000     4.50376    90.00000   180.00000     3.44512
     9.50000    90.00000   180.00000     4.50364    90.00000   180.00000     3.44511
     9.60000    90.00000   180.00000     4.50353    90.00000   180.00000     3.44510
     9.70000    90.00000   180.00000     4.50341    90.00000   180.00000     3.44509
     9.80000    90.00000   180.00000     4.50330    90.00000   180.00000     3.44508
     9.90000    90.00000   180.00000     4.50318    90.00000   180.00000     3.44507
    10.00000    90.00000   180.00000     4.50307    90.00000   180.00000     3.44506
    10.10000    90.00000   180.00000     4.50295    90.00000   180.00000     3.44505
    10.20000    90.00000   180.00000     4.50284    90.00000   180.00000     3.44504
    10.30000    90.00000   180.00000     4.50272    90.00000   180.00000     3.44503
    10.40000    90.00000   180.00000     4.50261    90.00000   180.00000     3.44502
    10.50000    90.00000   180.00000     4.50249    90.00000   180.00000     3.44502
    10.60000    90.00000   180.00000     4.50238    90.00000   180.00000     3.44501
    10.70000    90.00000   180.00000     4.50226    90.00000   180.00000     3.44500
    10.80000    90.00000   180.00000     4.50215    90.00000   180.00000     3.44499
    10.90000    90.00000   180.00000     4.50203    90.00000   180.00000     3.44498
    11.00000    90.00000   180.00000     4.50192    90.00000   180.00000     3.44497
    11.10000    90.00000   180.00000     4.50180    90.00000   180.00000     3.44496
    11.20000    90.00000   180.00000     4.50169    90.00000   180.00000     3.44495
    11.30000    90.00000   180.00000     4.50157    90.00000   180.00000     3.44494
    11.40000    90.00000   180.00000     4.50146    90.00000   180.00000     3.44493
    11.50000    90.00000   180.00000     4.50134    90.00000   180.00000     3.44492
    11.60000    90.00000   180.00000     4.50123    90.00000   180.00000     3.44491
    11.70000    90.00000   180.00000     4.50111    90.00000   180.00000     3.44490
    11.80000    90.00000   180.00000     4.50100    90.00000   180.00000     3.44488
    11.90000    90.00000   180.00000     4.50088    90.00000   180.00000     3.44487
    12.00000    90.00000   180.00000     4.50077    90.00000   180.00000     3.44486
    12.10000    90.00000   180.00000     4.50065    90.00000   180.00000     3.44485
    12.20000    90.00000   180.00000     4.50054    90.00000   180.00000     3.44484
    12.30000    90.00000   180.00000     4.50042    90.00000   180.00000     3.44483
    12.40000    90.00000   180.00000     4.50031    90.00000   180.00000     3.44482
    12.50000    90.00000   180.00000     4.50019    90.00000   180.00000     3.44481
    12.60000    90.00000   180.00000     4.50008    90.00000   180.00000     3.44480
    12.70000    90.00000   180.00000     4.49996    90.00000   180.00000     3.44479
    12.80000    90.00000   180.00000     4.49985    90.00000   180.00000     3.44478
    12.90000    90.00000   180.00000     4.49973    90.00000   180.00000     3.44477
    13.00000    90.00000   180.00000     4.49962    90.00000   180.00000     3.44476
    13.10000    90.00000   180.00000     4.49950    90.00000   180.00000     3.44475
    13.20000    90.00000   180.00000     4.49939    90.00000   180.00000     3.44474
    13.30000    90.00000   180.00000     4.49927    90.00000   180.00000     3.44473
    13.40000    90.00000   180.00000     4.49916    90.00000   180.00000     3.44472
    13.50000    90.00000   180.00000     4.49904    90.00000   180.00000     3.44471
    13.60000    90.00000   180.00000     4.49893    90.00000   180.00000     3.44470
    13.70000    90.00000   180.00000     4.49881    90.00000   180.00000     3.44469
    13.80000    90.00000   180.00000     4.49870    90.00000   180.00000     3.44468
    13.90000    90.00000   180.00000     4.49858    90.00000   180.00000     3.44467
    14.00000    90.00000   180.00000     4.49847    90.00000   180.00000     3.44466
    14.10000    90.00000   180.00000     4.49835    90.00000   180.00000     3.44465
    14.20000    90.00000   180.00000     4.49824    90.00000   180.00000     3.44464
    14.30000    90.00000   180.00000     4.49812    90.00000   180.00000     3.44463
    14.40000    90.00000   180.00000     4.49801    90.00000   180.00000     3.44461
    14.50000    90.00000   180.00000     4.49789    90.00000   180.00000     3.44460
    14.60000    90.00000   180.00000     4.49778    90.00000   180.00000     3.44459
    14.70000    90.00000   180.00000     4.49766    90.00000   180.00000     3.44458
    14.80000    90.00000   180.00000     4.49755    90.00000   180.00000     3.44457
    14.90000    90.00000   180.00000     4.49743    90.00000   180.00000     3.44456
    15.00000    90.00000   180.00000     4.49731    90.00000   180.00000     3.44455
    15.10000    90.00000   180.00000     4.49720    90.00000   180.00000     3.44454
    15.20000    90.00000   180.00000     4.49708    90.00000   180.00000     3.44453
    15.30000    90.00000   180.00000     4.49697    90.00000   180.00000     3.44452
    15.40000    90.00000   180.00000     4.49685    90.00000   180.00000     3.44451
    15.50000    90.00000   180.00000     4.49674    90.00000   180.00000     3.44450
    15.60000    90.00000   180.00000     4.49662    90.00000   180.00000     3.44449
    15.70000    90.00000   180.00000     4.49651    90.00000   180.00000     3.44447
    15.80000    90.00000   180.00000     4.49639    90.00000   180.00000     3.44446
    15.90000    90.00000   180.00000     4.49628    90.00000   180.00000     3.44445
    16.00000    90.00000   180.00000     4.49616    90.00000   180.00000     3.44444
    16.10000    90.00000   180.00000     4.49605    90.00000   180.00000     3.44443
    16.20000    90.00000   180.00000     4.49593    90.00000   180.00000     3.44442
    16.30000    90.00000   180.00000     4.49582    90.00000   180.00000     3.44441
    16.40000    90.00000   180.00000     4.49570    90.00000   180.00000     3.44440
    16.50000    90.00000   180.00000     4.49559    90.00000   180.00000     3.44439
    16.60000    90.00000   180.00000     4.49547    90.00000   180.00000     3.44438
    16.70000    90.00000   180.00000     4.49536    90.00000   180.00000     3.44436
    16.80000    90.00000   180.00000     4.49524    90.00000   180.00000     3.44435
    16.90000    90.00000   180.00000     4.49513    90.00000   180.00000     3.44434
    17.00000    90.00000   180.00000     4.49501    90.00000   180.00000     3.44433
    17.10000    90.00000   180.00000     4.49490    90.00000   180.00000     3.44432
    17.20000    90.00000   180.00000     4.49478    90.00000   180.00000     3.44431
    17.30000    90.00000   180.00000     4.49467    90.00000   180.00000     3.44430
    17.40000    90.00000   180.00000     4.49455    90.00000   180.00000     3.44429
    17.50000    90.00000   180.00000     4.49444    90.00000   180.00000     3.44428
    17.60000    90.00000   180.00000     4.49432    90.00000   180.00000     3.44426
    17.70000    90.00000   180.00000     4.49420    90.00000   180.00000     3.44425
    17.80000    90.00000   180.00000     4.49409    90.00000   180.00000     3.44424
    17.90000    90.00000   180.00000     4.49397    90.00000   180.00000     3.44423
    18.00000    90.00000   180.00000     4.49386    90.00000   180.00000     3.44422
    18.10000    90.00000   180.00000     4.49374    90.00000   180.00000     3.44421
    18.20000    90.00000   180.00000     4.49363    90.00000   180.00000     3.44420
    18.30000    90.00000   180.00000     4.49351    90.00000   180.00000     3.44418
    18.40000    90.00000   180.00000     4.49340    90.00000   180.00000     3.44417
    18.50000    90.00000   180.00000     4.49328    90.00000   180.00000     3.44416
    18.60000    90.00000   180.00000     4.49317    90.00000   180.00000     3.44415
    18.70000    90.00000   180.00000     4.49305    90.00000   180.00000     3.44414
    18.80000    90.00000   180.00000     4.49294    90.00000   180.00000     3.44413
    18.90000    90.00000   180.00000     4.49282    90.00000   180.00000     3.44412
    19.00000    90.00000   180.00000     4.49271    90.00000   180.00000     3.44410
    19.10000    90.00000   180.00000     4.49259    90.00000   180.00000     3.44409
    19.20000    90.00000   180.00000     4.49248    90.00000   180.00000     3.44408
    19.30000    90.00000   180.00000     4.49236    90.00000   180.00000     3.44407
    19.40000    90.00000   180.00000     4.49225    90.00000   180.00000     3.44406
    19.50000    90.00000   180.00000     4.49213    90.00000   180.00000     3.44405
    19.60000    90.00000   180.00000     4.49201    90.00000   180.00000     3.44403
    19.70000    90.00000   180.00000     4.49190    90.00000   180.00000     3.44402
    19.80000    90.00000   180.00000     4.49178    90.00000   180.00000     3.44401
    19.90000    90.00000   180.00000     4.49167    90.00000   180.00000     3.44400
    20.00000    90.00000   180.00000     4.49155    90.00000   180.00000     3.44399
    20.10000    90.00000   180.00000     4.49144    90.00000   180.00000     3.44398
    20.20000    90.00000   180.00000     4.49132    90.00000   180.00000     3.44396
    20.30000    90.00000   180.00000     4.49121    90.00000   180.00000     3.44395
    20.40000    90.00000   180.00000     4.49109    90.00000   180.00000     3.44394
    20.50000    90.00000   180.00000     4.49098    90.00000   180.00000     3.44393
    20.60000    90.00000   180.00000     4.49086    90.00000   180.00000     3.44392
    20.70000    90.00000   180.00000     4.49075    90.00000   180.00000     3.44390
    20.80000    90.00000   180.00000     4.49063    90.00000   180.00000     3.44389
    20.90000    90.00000   180.00000     4.49051    90.00000   180.00000     3.44388
    21.00000    90.00000   180.00000     4.49040    90.00000   180.00000     3.44387
    21.10000    90.00000   180.00000     4.49028    90.00000   180.00000     3.44386
    21.20000    90.00000   180.00000     4.49017    90.00000   180.00000     3.44385
    21.30000    90.00000   180.00000     4.49005    90.00000   180.00000     3.44383
    21.40000    90.00000   180.00000     4.48994    90.00000   180.00000     3.44382
    21.50000    90.00000   180.00000     4.48982    90.00000   180.00000     3.44381
    21.60000    90.00000   180.00000     4.48971    90.00000   180.00000     3.44380
    21.70000    90.00000   180.00000     4.48959    90.00000   180.00000     3.44378
    21.80000    90.00000   180.00000     4.48948    90.00000   180.00000     3.44377
    21.90000    90.00000   180.00000     4.48936    90.00000   180.00000     3.44376
    22.00000    90.00000   180.00000     4.48925    90.00000   180.00000     3.44375
    22.10000    90.00000   180.00000     4.48913    90.00000   180.00000     3.44374
    22.20000    90.00000   180.00000     4.48901    90.00000   180.00000     3.44372
    22.30000    90.00000   180.00000     4.48890    90.00000   180.00000     3.44371
    22.40000    90.00000   180.00000     4.48878    90.00000   180.00000     3.44370
    22.50000    90.00000   180.00000     4.48867    90.00000   180.00000     3.44369
    22.60000    90.00000   180.00000     4.48855    90.00000   180.00000     3.44368
    22.70000    90.00000   180.00000     4.48844    90.00000   180.00000     3.44366
    22.80000    90.00000   180.00000     4.48832    90.00000   180.00000     3.44365
    22.90000    90.00000   180.00000     4.48821    90.00000   180.00000     3.44364
    23.00000    90.00000   180.00000     4.48809    90.00000   180.00000     3.44363
    23.10000    90.00000   180.00000     4.48797    90.00000   180.00000     3.44361
    23.20000    90.00000   180.00000     4.48786    90.00000   180.00000     3.44360
    23.30000    90.00000   180.00000     4.48774    90.00000   180.00000     3.44359
