 # applied field (T), theta (degree), phi (degree), abs [muB/unitcell], abs [T]
       0.00000000       0.00000000       0.00000000      42.21970290       1.42104489
       0.10000000       0.28416097     360.00000000      42.21970382       1.42104492
       0.20000000       0.56832249     360.00000000      42.21970656       1.42104501
       0.30000000       0.85248514     360.00000000      42.21971113       1.42104517
       0.40000000       1.19333167     360.00000000      42.21971842       1.42104541
       0.50000000       1.47749875     360.00000000      42.21972688       1.42104570
       0.60000000       1.76166873     360.00000000      42.21973717       1.42104604
       0.70000000       2.04584218     360.00000000      42.21974931       1.42104645
       0.80000000       2.33001965     360.00000000      42.21976330       1.42104692
       0.90000000       2.61420170     360.00000000      42.21977915       1.42104746
       1.00000000       2.95507615     360.00000000      42.21979910       1.42104813
       1.10000000       3.23927025     360.00000000      42.21981891       1.42104880
       1.20000000       3.52347071     360.00000000      42.21984060       1.42104953
       1.30000000       3.80767808     360.00000000      42.21986418       1.42105032
       1.40000000       4.09189293     360.00000000      42.21988966       1.42105118
       1.50000000       4.43281062     360.00000000      42.21992050       1.42105221
       1.60000000       4.71704386     360.00000000      42.21995005       1.42105321
       1.70000000       5.00128634     360.00000000      42.21998155       1.42105427
       1.80000000       5.28553860     360.00000000      42.22001500       1.42105540
       1.90000000       5.56980119     360.00000000      42.22005041       1.42105659
       2.00000000       5.91078008     360.00000000      42.22009253       1.42105800
       2.10000000       6.19506736     360.00000000      42.22013218       1.42105934
       2.20000000       6.47936671     360.00000000      42.22017384       1.42106074
       2.30000000       6.82039211     360.00000000      42.22022307       1.42106240
       2.40000000       7.10471998     360.00000000      42.22026908       1.42106395
       2.50000000       7.38906166     360.00000000      42.22031716       1.42106557
       2.60000000       7.73014024     360.00000000      42.22037372       1.42106747
       2.70000000       8.01451422     360.00000000      42.22042627       1.42106924
       2.80000000       8.29890373     360.00000000      42.22048096       1.42107108
       2.90000000       8.64004207     360.00000000      42.22054507       1.42107324
       3.00000000       8.92446762     360.00000000      42.22060436       1.42107523
       3.10000000       9.26565084     360.00000000      42.22067377       1.42107757
       3.20000000       9.55011499     360.00000000      42.22073777       1.42107972
       3.30000000       9.83459749     360.00000000      42.22080399       1.42108195
       3.40000000      10.17585139     360.00000000      42.22088138       1.42108456
       3.50000000      10.51713348     360.00000000      42.22096173       1.42108726
       3.60000000      10.80168233     360.00000000      42.22103543       1.42108974
       3.70000000      11.14301832     360.00000000      42.22112143       1.42109264
       3.80000000      11.42761322     360.00000000      42.22120013       1.42109528
       3.90000000      11.76900605     360.00000000      42.22129192       1.42109837
       4.00000000      12.11043113     360.00000000      42.22138683       1.42110157
       4.10000000      12.39510195     360.00000000      42.22147340       1.42110448
       4.20000000      12.73658830     360.00000000      42.22157428       1.42110788
       4.30000000      13.07810928     360.00000000      42.22167840       1.42111138
       4.40000000      13.41966573     360.00000000      42.22178580       1.42111500
       4.50000000      13.70444819     360.00000000      42.22188334       1.42111828
       4.60000000      14.04607169     360.00000000      42.22199694       1.42112210
       4.70000000      14.38773294     360.00000000      42.22211391       1.42112604
       4.80000000      14.72943273     360.00000000      42.22223428       1.42113009
       4.90000000      15.07117182     360.00000000      42.22235807       1.42113426
       5.00000000      15.41295099     360.00000000      42.22248533       1.42113854
       5.10000000      15.75477098     360.00000000      42.22261608       1.42114294
       5.20000000      16.15348973     360.00000000      42.22276670       1.42114801
       5.30000000      16.49540077     360.00000000      42.22290498       1.42115267
       5.40000000      16.83735492     360.00000000      42.22304683       1.42115744
       5.50000000      17.17935287     360.00000000      42.22319226       1.42116234
       5.60000000      17.57828335     360.00000000      42.22335969       1.42116797
       5.70000000      17.92037862     360.00000000      42.22351286       1.42117313
       5.80000000      18.31942466     360.00000000      42.22368913       1.42117906
       5.90000000      18.71853443     360.00000000      42.22387015       1.42118515
       6.00000000      19.06078532     360.00000000      42.22403531       1.42119071
       6.10000000      19.46001587     360.00000000      42.22422528       1.42119711
       6.20000000      19.85931282     360.00000000      42.22442005       1.42120366
       6.30000000      20.25867705     360.00000000      42.22461961       1.42121038
       6.40000000      20.65810938     360.00000000      42.22482398       1.42121726
       6.50000000      21.05761063     360.00000000      42.22503315       1.42122430
       6.60000000      21.45718153     360.00000000      42.22524711       1.42123150
       6.70000000      21.91381580     360.00000000      42.22549063       1.42123970
       6.80000000      22.31353847     360.00000000      42.22571474       1.42124724
       6.90000000      22.77034823     360.00000000      42.22596963       1.42125582
       7.00000000      23.22725293     360.00000000      42.22623050       1.42126460
       7.10000000      23.68425337     360.00000000      42.22649730       1.42127358
       7.20000000      24.14135028     360.00000000      42.22676998       1.42128276
       7.30000000      24.65561002     360.00000000      42.22707722       1.42129310
       7.40000000      25.11291404     360.00000000      42.22736211       1.42130269
       7.50000000      25.62740845     360.00000000      42.22768276       1.42131348
       7.60000000      26.14202800     360.00000000      42.22801030       1.42132450
       7.70000000      26.65677306     360.00000000      42.22834462       1.42133576
       7.80000000      27.22878018     360.00000000      42.22871778       1.42134832
       7.90000000      27.80094310     360.00000000      42.22909878       1.42136114
       8.00000000      28.37326168     360.00000000      42.22948740       1.42137422
       8.10000000      29.00292083     360.00000000      42.22991779       1.42138871
       8.20000000      29.68997174     360.00000000      42.23039183       1.42140466
       8.30000000      30.37724502     360.00000000      42.23087545       1.42142094
       8.40000000      31.06473869     360.00000000      42.23136819       1.42143752
       8.50000000      31.86697439     360.00000000      42.23194424       1.42145691
       8.60000000      90.00000000     360.00000000      42.26344135       1.42251705
       8.70000000      90.00000000     360.00000000      42.26348297       1.42251845
       8.80000000      90.00000000     360.00000000      42.26352460       1.42251986
       8.90000000      90.00000000     360.00000000      42.26356623       1.42252126
       9.00000000      90.00000000     360.00000000      42.26360786       1.42252266
       9.10000000      90.00000000     360.00000000      42.26364950       1.42252406
       9.20000000      90.00000000     360.00000000      42.26369115       1.42252546
       9.30000000      90.00000000     360.00000000      42.26373280       1.42252686
       9.40000000      90.00000000     360.00000000      42.26377445       1.42252827
       9.50000000      90.00000000     360.00000000      42.26381611       1.42252967
       9.60000000      90.00000000     360.00000000      42.26385778       1.42253107
       9.70000000      90.00000000     360.00000000      42.26389945       1.42253247
       9.80000000      90.00000000     360.00000000      42.26394112       1.42253388
       9.90000000      90.00000000     360.00000000      42.26398280       1.42253528
      10.00000000      90.00000000     360.00000000      42.26402449       1.42253668
      10.10000000      90.00000000     360.00000000      42.26406617       1.42253808
      10.20000000      90.00000000     360.00000000      42.26410787       1.42253949
      10.30000000      90.00000000     360.00000000      42.26414957       1.42254089
      10.40000000      90.00000000     360.00000000      42.26419127       1.42254229
      10.50000000      90.00000000     360.00000000      42.26423298       1.42254370
      10.60000000      90.00000000     360.00000000      42.26427469       1.42254510
      10.70000000      90.00000000     360.00000000      42.26431641       1.42254651
      10.80000000      90.00000000     360.00000000      42.26435814       1.42254791
      10.90000000      90.00000000     360.00000000      42.26439987       1.42254932
      11.00000000      90.00000000     360.00000000      42.26444160       1.42255072
      11.10000000      90.00000000     360.00000000      42.26448334       1.42255213
      11.20000000      90.00000000     360.00000000      42.26452508       1.42255353
      11.30000000      90.00000000     360.00000000      42.26456683       1.42255494
      11.40000000      90.00000000     360.00000000      42.26460858       1.42255634
      11.50000000      90.00000000     360.00000000      42.26465034       1.42255775
      11.60000000      90.00000000     360.00000000      42.26469210       1.42255915
      11.70000000      90.00000000     360.00000000      42.26473387       1.42256056
      11.80000000      90.00000000     360.00000000      42.26477565       1.42256196
      11.90000000      90.00000000     360.00000000      42.26481742       1.42256337
      12.00000000      90.00000000     360.00000000      42.26485921       1.42256478
      12.10000000      90.00000000     360.00000000      42.26490099       1.42256618
      12.20000000      90.00000000     360.00000000      42.26494279       1.42256759
      12.30000000      90.00000000     360.00000000      42.26498458       1.42256900
      12.40000000      90.00000000     360.00000000      42.26502639       1.42257040
      12.50000000      90.00000000     360.00000000      42.26506820       1.42257181
      12.60000000      90.00000000     360.00000000      42.26511001       1.42257322
      12.70000000      90.00000000     360.00000000      42.26515183       1.42257463
      12.80000000      90.00000000     360.00000000      42.26519365       1.42257603
      12.90000000      90.00000000     360.00000000      42.26523548       1.42257744
      13.00000000      90.00000000     360.00000000      42.26527731       1.42257885
      13.10000000      90.00000000     360.00000000      42.26531914       1.42258026
      13.20000000      90.00000000     360.00000000      42.26536099       1.42258167
      13.30000000      90.00000000     360.00000000      42.26540283       1.42258307
      13.40000000      90.00000000     360.00000000      42.26544469       1.42258448
      13.50000000      90.00000000     360.00000000      42.26548654       1.42258589
      13.60000000      90.00000000     360.00000000      42.26552841       1.42258730
      13.70000000      90.00000000     360.00000000      42.26557027       1.42258871
      13.80000000      90.00000000     360.00000000      42.26561215       1.42259012
      13.90000000      90.00000000     360.00000000      42.26565402       1.42259153
      14.00000000      90.00000000     360.00000000      42.26569590       1.42259294
      14.10000000      90.00000000     360.00000000      42.26573779       1.42259435
      14.20000000      90.00000000     360.00000000      42.26577968       1.42259576
      14.30000000      90.00000000     360.00000000      42.26582158       1.42259717
      14.40000000      90.00000000     360.00000000      42.26586348       1.42259858
      14.50000000      90.00000000     360.00000000      42.26590539       1.42259999
      14.60000000      90.00000000     360.00000000      42.26594730       1.42260140
      14.70000000      90.00000000     360.00000000      42.26598922       1.42260281
      14.80000000      90.00000000     360.00000000      42.26603114       1.42260422
      14.90000000      90.00000000     360.00000000      42.26607307       1.42260563
      15.00000000      90.00000000     360.00000000      42.26611500       1.42260704
      15.10000000      90.00000000     360.00000000      42.26615693       1.42260846
      15.20000000      90.00000000     360.00000000      42.26619888       1.42260987
      15.30000000      90.00000000     360.00000000      42.26624082       1.42261128
      15.40000000      90.00000000     360.00000000      42.26628277       1.42261269
      15.50000000      90.00000000     360.00000000      42.26632473       1.42261410
      15.60000000      90.00000000     360.00000000      42.26636669       1.42261552
      15.70000000      90.00000000     360.00000000      42.26640866       1.42261693
      15.80000000      90.00000000     360.00000000      42.26645063       1.42261834
      15.90000000      90.00000000     360.00000000      42.26649261       1.42261975
      16.00000000      90.00000000     360.00000000      42.26653459       1.42262117
      16.10000000      90.00000000     360.00000000      42.26657657       1.42262258
      16.20000000      90.00000000     360.00000000      42.26661857       1.42262399
      16.30000000      90.00000000     360.00000000      42.26666056       1.42262541
      16.40000000      90.00000000     360.00000000      42.26670256       1.42262682
      16.50000000      90.00000000     360.00000000      42.26674457       1.42262823
      16.60000000      90.00000000     360.00000000      42.26678658       1.42262965
      16.70000000      90.00000000     360.00000000      42.26682860       1.42263106
      16.80000000      90.00000000     360.00000000      42.26687062       1.42263248
      16.90000000      90.00000000     360.00000000      42.26691264       1.42263389
      17.00000000      90.00000000     360.00000000      42.26695468       1.42263531
      17.10000000      90.00000000     360.00000000      42.26699671       1.42263672
      17.20000000      90.00000000     360.00000000      42.26703875       1.42263814
      17.30000000      90.00000000     360.00000000      42.26708080       1.42263955
      17.40000000      90.00000000     360.00000000      42.26712285       1.42264097
      17.50000000      90.00000000     360.00000000      42.26716491       1.42264238
      17.60000000      90.00000000     360.00000000      42.26720697       1.42264380
      17.70000000      90.00000000     360.00000000      42.26724903       1.42264521
      17.80000000      90.00000000     360.00000000      42.26729111       1.42264663
      17.90000000      90.00000000     360.00000000      42.26733318       1.42264805
      18.00000000      90.00000000     360.00000000      42.26737526       1.42264946
      18.10000000      90.00000000     360.00000000      42.26741735       1.42265088
      18.20000000      90.00000000     360.00000000      42.26745944       1.42265230
      18.30000000      90.00000000     360.00000000      42.26750154       1.42265371
      18.40000000      90.00000000     360.00000000      42.26754364       1.42265513
      18.50000000      90.00000000     360.00000000      42.26758574       1.42265655
      18.60000000      90.00000000     360.00000000      42.26762786       1.42265796
      18.70000000      90.00000000     360.00000000      42.26766997       1.42265938
      18.80000000      90.00000000     360.00000000      42.26771209       1.42266080
      18.90000000      90.00000000     360.00000000      42.26775422       1.42266222
      19.00000000      90.00000000     360.00000000      42.26779635       1.42266364
      19.10000000      90.00000000     360.00000000      42.26783849       1.42266505
      19.20000000      90.00000000     360.00000000      42.26788063       1.42266647
      19.30000000      90.00000000     360.00000000      42.26792277       1.42266789
      19.40000000      90.00000000     360.00000000      42.26796493       1.42266931
      19.50000000      90.00000000     360.00000000      42.26800708       1.42267073
      19.60000000      90.00000000     360.00000000      42.26804924       1.42267215
      19.70000000      90.00000000     360.00000000      42.26809141       1.42267357
      19.80000000      90.00000000     360.00000000      42.26813358       1.42267499
      19.90000000      90.00000000     360.00000000      42.26817576       1.42267641
      20.00000000      90.00000000     360.00000000      42.26821794       1.42267783
      20.10000000      90.00000000     360.00000000      42.26826013       1.42267925
      20.20000000      90.00000000     360.00000000      42.26830232       1.42268067
      20.30000000      90.00000000     360.00000000      42.26834451       1.42268209
      20.40000000      90.00000000     360.00000000      42.26838671       1.42268351
      20.50000000      90.00000000     360.00000000      42.26842892       1.42268493
      20.60000000      90.00000000     360.00000000      42.26847113       1.42268635
      20.70000000      90.00000000     360.00000000      42.26851335       1.42268777
      20.80000000      90.00000000     360.00000000      42.26855557       1.42268919
      20.90000000      90.00000000     360.00000000      42.26859780       1.42269061
      21.00000000      90.00000000     360.00000000      42.26864003       1.42269203
      21.10000000      90.00000000     360.00000000      42.26868227       1.42269345
      21.20000000      90.00000000     360.00000000      42.26872451       1.42269488
      21.30000000      90.00000000     360.00000000      42.26876675       1.42269630
      21.40000000      90.00000000     360.00000000      42.26880901       1.42269772
      21.50000000      90.00000000     360.00000000      42.26885126       1.42269914
      21.60000000      90.00000000     360.00000000      42.26889352       1.42270056
      21.70000000      90.00000000     360.00000000      42.26893579       1.42270199
      21.80000000      90.00000000     360.00000000      42.26897806       1.42270341
      21.90000000      90.00000000     360.00000000      42.26902034       1.42270483
      22.00000000      90.00000000     360.00000000      42.26906262       1.42270626
      22.10000000      90.00000000     360.00000000      42.26910491       1.42270768
      22.20000000      90.00000000     360.00000000      42.26914720       1.42270910
      22.30000000      90.00000000     360.00000000      42.26918950       1.42271053
      22.40000000      90.00000000     360.00000000      42.26923180       1.42271195
      22.50000000      90.00000000     360.00000000      42.26927411       1.42271337
      22.60000000      90.00000000     360.00000000      42.26931642       1.42271480
      22.70000000      90.00000000     360.00000000      42.26935874       1.42271622
      22.80000000      90.00000000     360.00000000      42.26940106       1.42271765
      22.90000000      90.00000000     360.00000000      42.26944339       1.42271907
      23.00000000      90.00000000     360.00000000      42.26948572       1.42272050
