 # applied field (T), theta (degree), phi (degree), abs for RE 1-2
     0.00000     0.00000     0.00000     3.61769     0.00000     0.00000     3.61769
     0.10000     0.80366   360.00000     3.61768     0.67098   360.00000     3.61762
     0.20000     1.66453   360.00000     3.61765     1.38981   360.00000     3.61741
     0.30000     2.46825   360.00000     3.61761     2.06111   360.00000     3.61709
     0.40000     3.27204   360.00000     3.61755     2.73271   360.00000     3.61664
     0.50000     4.13311   360.00000     3.61748     3.45255   360.00000     3.61601
     0.60000     4.93709   360.00000     3.61740     4.12512   360.00000     3.61530
     0.70000     5.79843   360.00000     3.61731     4.84621   360.00000     3.61439
     0.80000     6.60274   360.00000     3.61723     5.52015   360.00000     3.61342
     0.90000     7.46449   360.00000     3.61714     6.24295   360.00000     3.61224
     1.00000     8.26926   360.00000     3.61706     6.91870   360.00000     3.61101
     1.10000     9.13160   360.00000     3.61699     7.64366   360.00000     3.60956
     1.20000     9.99431   360.00000     3.61695     8.36991   360.00000     3.60797
     1.30000    10.85746   360.00000     3.61693     9.09756   360.00000     3.60624
     1.40000    11.72111   360.00000     3.61695     9.82675   360.00000     3.60438
     1.50000    12.58530   360.00000     3.61702    10.55757   360.00000     3.60238
     1.60000    13.45012   360.00000     3.61715    11.29016   360.00000     3.60025
     1.70000    14.37313   360.00000     3.61736    12.07346   360.00000     3.59783
     1.80000    15.23941   360.00000     3.61763    12.81004   360.00000     3.59543
     1.90000    16.16412   360.00000     3.61802    13.59785   360.00000     3.59272
     2.00000    17.08981   360.00000     3.61852    14.38819   360.00000     3.58988
     2.10000    18.01654   360.00000     3.61915    15.18118   360.00000     3.58689
     2.20000    18.94436   360.00000     3.61993    15.97695   360.00000     3.58377
     2.30000    19.93123   360.00000     3.62092    16.82547   360.00000     3.58031
     2.40000    20.86143   360.00000     3.62203    17.62736   360.00000     3.57691
     2.50000    21.85089   360.00000     3.62341    18.48267   360.00000     3.57316
     2.60000    22.89986   360.00000     3.62513    19.39217   360.00000     3.56904
     2.70000    23.89210   360.00000     3.62700    20.25525   360.00000     3.56502
     2.80000    24.94397   360.00000     3.62928    21.17328   360.00000     3.56061
     2.90000    26.05565   360.00000     3.63202    22.14718   360.00000     3.55580
     3.00000    27.11035   360.00000     3.63496    23.07486   360.00000     3.55111
     3.10000    28.22481   360.00000     3.63846    24.05925   360.00000     3.54601
     3.20000    29.39907   360.00000     3.64259    25.10141   360.00000     3.54050
     3.30000    30.57445   360.00000     3.64720    26.14998   360.00000     3.53485
     3.40000    31.80940   360.00000     3.65259    27.25793   360.00000     3.52877
     3.50000    33.04497   360.00000     3.65855    28.37331   360.00000     3.52255
     3.60000    34.33955   360.00000     3.66543    29.54985   360.00000     3.51591
     3.70000    35.69273   360.00000     3.67333    30.78886   360.00000     3.50882
     3.80000    37.04527   360.00000     3.68196    32.03737   360.00000     3.50162
     3.90000    38.51388   360.00000     3.69217    33.40519   360.00000     3.49366
     4.00000    40.03903   360.00000     3.70370    34.83994   360.00000     3.48528
     4.10000    41.56135   360.00000     3.71614    36.28740   360.00000     3.47681
     4.20000    43.25498   360.00000     3.73103    37.91677   360.00000     3.46727
     4.30000    45.00169   360.00000     3.74751    39.61921   360.00000     3.45736
     4.40000    46.85817   360.00000     3.76619    41.45412   360.00000     3.44676
     4.50000    48.82267   360.00000     3.78711    43.42522   360.00000     3.43553
     4.60000    51.00822   360.00000     3.81158    45.65425   360.00000     3.42308
     4.70000    53.35480   360.00000     3.83893    48.08992   360.00000     3.40984
     4.80000    55.97435   360.00000     3.87028    50.85977   360.00000     3.39534
     4.90000    58.92117   360.00000     3.90582    54.03688   360.00000     3.37955
     5.00000    62.41918   360.00000     3.94718    57.88576   360.00000     3.36181
     5.10000    66.69218   360.00000     3.99452    62.68748   360.00000     3.34203
     5.20000    72.58419   360.00000     4.05033    69.45421   360.00000     3.31907
     5.30000    84.48874   360.00000     4.11716    83.45168   360.00000     3.29158
     5.40000    90.00000   360.00000     4.12481    90.00000   360.00000     3.28854
     5.50000    90.00000   360.00000     4.12487    90.00000   360.00000     3.28866
     5.60000    90.00000   360.00000     4.12493    90.00000   360.00000     3.28879
     5.70000    90.00000   360.00000     4.12499    90.00000   360.00000     3.28891
     5.80000    90.00000   360.00000     4.12506    90.00000   360.00000     3.28903
     5.90000    90.00000   360.00000     4.12512    90.00000   360.00000     3.28915
     6.00000    90.00000   360.00000     4.12518    90.00000   360.00000     3.28928
     6.10000    90.00000   360.00000     4.12524    90.00000   360.00000     3.28940
     6.20000    90.00000   360.00000     4.12531    90.00000   360.00000     3.28952
     6.30000    90.00000   360.00000     4.12537    90.00000   360.00000     3.28964
     6.40000    90.00000   360.00000     4.12543    90.00000   360.00000     3.28976
     6.50000    90.00000   360.00000     4.12549    90.00000   360.00000     3.28989
     6.60000    90.00000   360.00000     4.12556    90.00000   360.00000     3.29001
     6.70000    90.00000   360.00000     4.12562    90.00000   360.00000     3.29013
     6.80000    90.00000   360.00000     4.12568    90.00000   360.00000     3.29025
     6.90000    90.00000   360.00000     4.12574    90.00000   360.00000     3.29038
     7.00000    90.00000   360.00000     4.12580    90.00000   360.00000     3.29050
     7.10000    90.00000   360.00000     4.12587    90.00000   360.00000     3.29062
     7.20000    90.00000   360.00000     4.12593    90.00000   360.00000     3.29074
     7.30000    90.00000   360.00000     4.12599    90.00000   360.00000     3.29086
     7.40000    90.00000   360.00000     4.12605    90.00000   360.00000     3.29099
     7.50000    90.00000   360.00000     4.12612    90.00000   360.00000     3.29111
     7.60000    90.00000   360.00000     4.12618    90.00000   360.00000     3.29123
     7.70000    90.00000   360.00000     4.12624    90.00000   360.00000     3.29135
     7.80000    90.00000   360.00000     4.12630    90.00000   360.00000     3.29147
     7.90000    90.00000   360.00000     4.12636    90.00000   360.00000     3.29160
     8.00000    90.00000   360.00000     4.12643    90.00000   360.00000     3.29172
     8.10000    90.00000   360.00000     4.12649    90.00000   360.00000     3.29184
     8.20000    90.00000   360.00000     4.12655    90.00000   360.00000     3.29196
     8.30000    90.00000   360.00000     4.12661    90.00000   360.00000     3.29208
     8.40000    90.00000   360.00000     4.12667    90.00000   360.00000     3.29221
     8.50000    90.00000   360.00000     4.12674    90.00000   360.00000     3.29233
     8.60000    90.00000   360.00000     4.12680    90.00000   360.00000     3.29245
     8.70000    90.00000   360.00000     4.12686    90.00000   360.00000     3.29257
     8.80000    90.00000   360.00000     4.12692    90.00000   360.00000     3.29269
     8.90000    90.00000   360.00000     4.12698    90.00000   360.00000     3.29281
     9.00000    90.00000   360.00000     4.12704    90.00000   360.00000     3.29294
     9.10000    90.00000   360.00000     4.12711    90.00000   360.00000     3.29306
     9.20000    90.00000   360.00000     4.12717    90.00000   360.00000     3.29318
     9.30000    90.00000   360.00000     4.12723    90.00000   360.00000     3.29330
     9.40000    90.00000   360.00000     4.12729    90.00000   360.00000     3.29342
     9.50000    90.00000   360.00000     4.12735    90.00000   360.00000     3.29354
     9.60000    90.00000   360.00000     4.12741    90.00000   360.00000     3.29366
     9.70000    90.00000   360.00000     4.12748    90.00000   360.00000     3.29379
     9.80000    90.00000   360.00000     4.12754    90.00000   360.00000     3.29391
     9.90000    90.00000   360.00000     4.12760    90.00000   360.00000     3.29403
    10.00000    90.00000   360.00000     4.12766    90.00000   360.00000     3.29415
    10.10000    90.00000   360.00000     4.12772    90.00000   360.00000     3.29427
    10.20000    90.00000   360.00000     4.12778    90.00000   360.00000     3.29439
    10.30000    90.00000   360.00000     4.12784    90.00000   360.00000     3.29451
    10.40000    90.00000   360.00000     4.12791    90.00000   360.00000     3.29463
    10.50000    90.00000   360.00000     4.12797    90.00000   360.00000     3.29476
    10.60000    90.00000   360.00000     4.12803    90.00000   360.00000     3.29488
    10.70000    90.00000   360.00000     4.12809    90.00000   360.00000     3.29500
    10.80000    90.00000   360.00000     4.12815    90.00000   360.00000     3.29512
    10.90000    90.00000   360.00000     4.12821    90.00000   360.00000     3.29524
    11.00000    90.00000   360.00000     4.12827    90.00000   360.00000     3.29536
    11.10000    90.00000   360.00000     4.12833    90.00000   360.00000     3.29548
    11.20000    90.00000   360.00000     4.12840    90.00000   360.00000     3.29560
    11.30000    90.00000   360.00000     4.12846    90.00000   360.00000     3.29572
    11.40000    90.00000   360.00000     4.12852    90.00000   360.00000     3.29584
    11.50000    90.00000   360.00000     4.12858    90.00000   360.00000     3.29597
    11.60000    90.00000   360.00000     4.12864    90.00000   360.00000     3.29609
    11.70000    90.00000   360.00000     4.12870    90.00000   360.00000     3.29621
    11.80000    90.00000   360.00000     4.12876    90.00000   360.00000     3.29633
    11.90000    90.00000   360.00000     4.12882    90.00000   360.00000     3.29645
    12.00000    90.00000   360.00000     4.12888    90.00000   360.00000     3.29657
    12.10000    90.00000   360.00000     4.12895    90.00000   360.00000     3.29669
    12.20000    90.00000   360.00000     4.12901    90.00000   360.00000     3.29681
    12.30000    90.00000   360.00000     4.12907    90.00000   360.00000     3.29693
    12.40000    90.00000   360.00000     4.12913    90.00000   360.00000     3.29705
    12.50000    90.00000   360.00000     4.12919    90.00000   360.00000     3.29717
    12.60000    90.00000   360.00000     4.12925    90.00000   360.00000     3.29729
    12.70000    90.00000   360.00000     4.12931    90.00000   360.00000     3.29741
    12.80000    90.00000   360.00000     4.12937    90.00000   360.00000     3.29753
    12.90000    90.00000   360.00000     4.12943    90.00000   360.00000     3.29765
    13.00000    90.00000   360.00000     4.12949    90.00000   360.00000     3.29777
    13.10000    90.00000   360.00000     4.12955    90.00000   360.00000     3.29789
    13.20000    90.00000   360.00000     4.12961    90.00000   360.00000     3.29801
    13.30000    90.00000   360.00000     4.12967    90.00000   360.00000     3.29813
    13.40000    90.00000   360.00000     4.12973    90.00000   360.00000     3.29825
    13.50000    90.00000   360.00000     4.12979    90.00000   360.00000     3.29837
    13.60000    90.00000   360.00000     4.12986    90.00000   360.00000     3.29849
    13.70000    90.00000   360.00000     4.12992    90.00000   360.00000     3.29862
    13.80000    90.00000   360.00000     4.12998    90.00000   360.00000     3.29874
    13.90000    90.00000   360.00000     4.13004    90.00000   360.00000     3.29886
    14.00000    90.00000   360.00000     4.13010    90.00000   360.00000     3.29898
    14.10000    90.00000   360.00000     4.13016    90.00000   360.00000     3.29910
    14.20000    90.00000   360.00000     4.13022    90.00000   360.00000     3.29922
    14.30000    90.00000   360.00000     4.13028    90.00000   360.00000     3.29934
    14.40000    90.00000   360.00000     4.13034    90.00000   360.00000     3.29946
    14.50000    90.00000   360.00000     4.13040    90.00000   360.00000     3.29957
    14.60000    90.00000   360.00000     4.13046    90.00000   360.00000     3.29969
    14.70000    90.00000   360.00000     4.13052    90.00000   360.00000     3.29981
    14.80000    90.00000   360.00000     4.13058    90.00000   360.00000     3.29993
    14.90000    90.00000   360.00000     4.13064    90.00000   360.00000     3.30005
    15.00000    90.00000   360.00000     4.13070    90.00000   360.00000     3.30017
    15.10000    90.00000   360.00000     4.13076    90.00000   360.00000     3.30029
    15.20000    90.00000   360.00000     4.13082    90.00000   360.00000     3.30041
    15.30000    90.00000   360.00000     4.13088    90.00000   360.00000     3.30053
    15.40000    90.00000   360.00000     4.13094    90.00000   360.00000     3.30065
    15.50000    90.00000   360.00000     4.13100    90.00000   360.00000     3.30077
    15.60000    90.00000   360.00000     4.13106    90.00000   360.00000     3.30089
    15.70000    90.00000   360.00000     4.13112    90.00000   360.00000     3.30101
    15.80000    90.00000   360.00000     4.13118    90.00000   360.00000     3.30113
    15.90000    90.00000   360.00000     4.13124    90.00000   360.00000     3.30125
    16.00000    90.00000   360.00000     4.13130    90.00000   360.00000     3.30137
    16.10000    90.00000   360.00000     4.13136    90.00000   360.00000     3.30149
    16.20000    90.00000   360.00000     4.13142    90.00000   360.00000     3.30161
    16.30000    90.00000   360.00000     4.13148    90.00000   360.00000     3.30173
    16.40000    90.00000   360.00000     4.13154    90.00000   360.00000     3.30185
    16.50000    90.00000   360.00000     4.13160    90.00000   360.00000     3.30197
    16.60000    90.00000   360.00000     4.13166    90.00000   360.00000     3.30209
    16.70000    90.00000   360.00000     4.13172    90.00000   360.00000     3.30220
    16.80000    90.00000   360.00000     4.13178    90.00000   360.00000     3.30232
    16.90000    90.00000   360.00000     4.13184    90.00000   360.00000     3.30244
    17.00000    90.00000   360.00000     4.13190    90.00000   360.00000     3.30256
    17.10000    90.00000   360.00000     4.13196    90.00000   360.00000     3.30268
    17.20000    90.00000   360.00000     4.13202    90.00000   360.00000     3.30280
    17.30000    90.00000   360.00000     4.13207    90.00000   360.00000     3.30292
    17.40000    90.00000   360.00000     4.13213    90.00000   360.00000     3.30304
    17.50000    90.00000   360.00000     4.13219    90.00000   360.00000     3.30316
    17.60000    90.00000   360.00000     4.13225    90.00000   360.00000     3.30328
    17.70000    90.00000   360.00000     4.13231    90.00000   360.00000     3.30340
    17.80000    90.00000   360.00000     4.13237    90.00000   360.00000     3.30351
    17.90000    90.00000   360.00000     4.13243    90.00000   360.00000     3.30363
    18.00000    90.00000   360.00000     4.13249    90.00000   360.00000     3.30375
    18.10000    90.00000   360.00000     4.13255    90.00000   360.00000     3.30387
    18.20000    90.00000   360.00000     4.13261    90.00000   360.00000     3.30399
    18.30000    90.00000   360.00000     4.13267    90.00000   360.00000     3.30411
    18.40000    90.00000   360.00000     4.13273    90.00000   360.00000     3.30423
    18.50000    90.00000   360.00000     4.13279    90.00000   360.00000     3.30435
    18.60000    90.00000   360.00000     4.13285    90.00000   360.00000     3.30446
    18.70000    90.00000   360.00000     4.13291    90.00000   360.00000     3.30458
    18.80000    90.00000   360.00000     4.13297    90.00000   360.00000     3.30470
    18.90000    90.00000   360.00000     4.13302    90.00000   360.00000     3.30482
    19.00000    90.00000   360.00000     4.13308    90.00000   360.00000     3.30494
    19.10000    90.00000   360.00000     4.13314    90.00000   360.00000     3.30506
    19.20000    90.00000   360.00000     4.13320    90.00000   360.00000     3.30518
    19.30000    90.00000   360.00000     4.13326    90.00000   360.00000     3.30529
    19.40000    90.00000   360.00000     4.13332    90.00000   360.00000     3.30541
    19.50000    90.00000   360.00000     4.13338    90.00000   360.00000     3.30553
    19.60000    90.00000   360.00000     4.13344    90.00000   360.00000     3.30565
    19.70000    90.00000   360.00000     4.13350    90.00000   360.00000     3.30577
    19.80000    90.00000   360.00000     4.13356    90.00000   360.00000     3.30589
    19.90000    90.00000   360.00000     4.13361    90.00000   360.00000     3.30600
    20.00000    90.00000   360.00000     4.13367    90.00000   360.00000     3.30612
    20.10000    90.00000   360.00000     4.13373    90.00000   360.00000     3.30624
    20.20000    90.00000   360.00000     4.13379    90.00000   360.00000     3.30636
    20.30000    90.00000   360.00000     4.13385    90.00000   360.00000     3.30648
    20.40000    90.00000   360.00000     4.13391    90.00000   360.00000     3.30659
    20.50000    90.00000   360.00000     4.13397    90.00000   360.00000     3.30671
    20.60000    90.00000   360.00000     4.13403    90.00000   360.00000     3.30683
    20.70000    90.00000   360.00000     4.13408    90.00000   360.00000     3.30695
    20.80000    90.00000   360.00000     4.13414    90.00000   360.00000     3.30707
    20.90000    90.00000   360.00000     4.13420    90.00000   360.00000     3.30718
    21.00000    90.00000   360.00000     4.13426    90.00000   360.00000     3.30730
    21.10000    90.00000   360.00000     4.13432    90.00000   360.00000     3.30742
    21.20000    90.00000   360.00000     4.13438    90.00000   360.00000     3.30754
    21.30000    90.00000   360.00000     4.13444    90.00000   360.00000     3.30766
    21.40000    90.00000   360.00000     4.13450    90.00000   360.00000     3.30777
    21.50000    90.00000   360.00000     4.13455    90.00000   360.00000     3.30789
    21.60000    90.00000   360.00000     4.13461    90.00000   360.00000     3.30801
    21.70000    90.00000   360.00000     4.13467    90.00000   360.00000     3.30813
    21.80000    90.00000   360.00000     4.13473    90.00000   360.00000     3.30824
    21.90000    90.00000   360.00000     4.13479    90.00000   360.00000     3.30836
    22.00000    90.00000   360.00000     4.13485    90.00000   360.00000     3.30848
    22.10000    90.00000   360.00000     4.13490    90.00000   360.00000     3.30860
    22.20000    90.00000   360.00000     4.13496    90.00000   360.00000     3.30872
    22.30000    90.00000   360.00000     4.13502    90.00000   360.00000     3.30883
    22.40000    90.00000   360.00000     4.13508    90.00000   360.00000     3.30895
    22.50000    90.00000   360.00000     4.13514    90.00000   360.00000     3.30907
    22.60000    90.00000   360.00000     4.13520    90.00000   360.00000     3.30919
    22.70000    90.00000   360.00000     4.13525    90.00000   360.00000     3.30930
    22.80000    90.00000   360.00000     4.13531    90.00000   360.00000     3.30942
    22.90000    90.00000   360.00000     4.13537    90.00000   360.00000     3.30954
    23.00000    90.00000   360.00000     4.13543    90.00000   360.00000     3.30965
    23.10000    90.00000   360.00000     4.13549    90.00000   360.00000     3.30977
    23.20000    90.00000   360.00000     4.13555    90.00000   360.00000     3.30989
    23.30000    90.00000   360.00000     4.13560    90.00000   360.00000     3.31001
