 # applied field (T), theta (degree), phi (degree), abs for RE 3-4
     0.00000   180.00000   360.00000     0.03009   180.00000   360.00000     0.03009
     0.10000   178.10989   212.07322     0.03011   178.10989   237.92678     0.03011
     0.20000   175.76118   212.33619     0.03017   175.76118   237.66381     0.03017
     0.30000   173.88440   212.25537     0.03025   173.88440   237.74463     0.03025
     0.40000   172.01932   212.21275     0.03036   172.01932   237.78725     0.03036
     0.50000   169.71766   212.28905     0.03054   169.71766   237.71095     0.03054
     0.60000   167.89091   212.25629     0.03072   167.89091   237.74371     0.03072
     0.70000   166.08614   212.23243     0.03092   166.08614   237.76757     0.03092
     0.80000   163.87299   212.27808     0.03121   163.87299   237.72192     0.03121
     0.90000   162.12711   212.25782     0.03148   162.12711   237.74218     0.03148
     1.00000   160.41110   212.24150     0.03177   160.41110   237.75850     0.03177
     1.10000   158.31822   212.27440     0.03217   158.31822   237.72560     0.03217
     1.20000   156.67565   212.25997     0.03251   156.67565   237.74003     0.03251
     1.30000   154.67863   212.28648     0.03298   154.67863   237.71352     0.03298
     1.40000   153.11584   212.27374     0.03337   153.11584   237.72626     0.03337
     1.50000   151.58988   212.26274     0.03379   151.58988   237.73726     0.03379
     1.60000   149.74137   212.28473     0.03434   149.74137   237.71527     0.03434
     1.70000   148.29954   212.27484     0.03480   148.29954   237.72516     0.03480
     1.80000   146.89535   212.26613     0.03529   146.89535   237.73387     0.03529
     1.90000   145.19876   212.28509     0.03591   145.19876   237.71491     0.03591
     2.00000   143.87843   212.27718     0.03643   143.87843   237.72282     0.03643
     2.10000   142.59483   212.27015     0.03697   142.59483   237.72985     0.03697
     2.20000   141.04652   212.28696     0.03766   141.04652   237.71304     0.03766
     2.30000   139.84330   212.28054     0.03823   139.84330   237.71946     0.03823
     2.40000   138.67475   212.27480     0.03881   138.67475   237.72520     0.03881
     2.50000   137.26649   212.29002     0.03956   137.26649   237.70998     0.03956
     2.60000   136.17289   212.28478     0.04017   136.17289   237.71522     0.04017
     2.70000   134.85531   212.29887     0.04095   134.85531   237.70113     0.04095
     2.80000   133.83229   212.29411     0.04158   133.83229   237.70589     0.04158
     2.90000   132.83923   212.28983     0.04223   132.83923   237.71017     0.04223
     3.00000   131.64276   212.30298     0.04304   131.64276   237.69702     0.04304
     3.10000   130.71365   212.29911     0.04371   130.71365   237.70089     0.04371
     3.20000   129.81153   212.29564     0.04438   129.81153   237.70436     0.04438
     3.30000   128.72421   212.30807     0.04523   128.72421   237.69193     0.04523
     3.40000   127.87947   212.30496     0.04592   127.87947   237.69504     0.04592
     3.50000   126.86086   212.31682     0.04679   126.86086   237.68318     0.04679
     3.60000   126.06912   212.31406     0.04750   126.06912   237.68594     0.04750
     3.70000   125.29966   212.31162     0.04821   125.29966   237.68838     0.04821
     3.80000   124.37110   212.32302     0.04910   124.37110   237.67698     0.04910
     3.90000   123.64878   212.32090     0.04982   123.64878   237.67910     0.04982
     4.00000   122.94623   212.31906     0.05055   122.94623   237.68094     0.05055
     4.10000   122.09763   212.33010     0.05146   122.09763   237.66990     0.05146
     4.20000   121.43692   212.32855     0.05219   121.43692   237.67145     0.05219
     4.30000   120.63829   212.33929     0.05312   120.63829   237.66071     0.05312
     4.40000   120.01606   212.33802     0.05386   120.01606   237.66198     0.05386
     4.50000   119.40998   212.33700     0.05460   119.40998   237.66300     0.05460
     4.60000   118.67662   212.34752     0.05554   118.67662   237.65248     0.05554
     4.70000   118.10468   212.34676     0.05629   118.10468   237.65324     0.05629
     4.80000   117.41212   212.35709     0.05723   117.41212   237.64291     0.05723
     4.90000   116.87163   212.35659     0.05799   116.87163   237.64341     0.05799
     5.00000   116.34434   212.35630     0.05874   116.34434   237.64370     0.05874
     5.10000   115.70515   212.36652     0.05969   115.70515   237.63348     0.05969
     5.20000   115.20583   212.36648     0.06045   115.20583   237.63352     0.06045
     5.30000   114.60009   212.37657     0.06140   114.60009   237.62343     0.06140
     5.40000   114.12659   212.37678     0.06216   114.12659   237.62322     0.06216
     5.50000   113.55175   212.38677     0.06312   113.55175   237.61323     0.06312
     5.60000   113.10210   212.38723     0.06388   113.10210   237.61277     0.06388
     5.70000   112.66249   212.38786     0.06464   112.66249   237.61214     0.06464
     5.80000   112.12826   212.39784     0.06560   112.12826   237.60216     0.06560
     5.90000   111.71000   212.39871     0.06636   111.71000   237.60129     0.06636
     6.00000   111.20134   212.40865     0.06731   111.20134   237.59135     0.06731
     6.10000   110.80287   212.40975     0.06808   110.80287   237.59025     0.06808
     6.20000   110.31794   212.41967     0.06903   110.31794   237.58033     0.06903
     6.30000   109.93785   212.42100     0.06979   109.93785   237.57900     0.06979
     6.40000   109.47498   212.43091     0.07074   109.47498   237.56909     0.07074
     6.50000   109.11197   212.43247     0.07150   109.11197   237.56753     0.07150
     6.60000   108.75620   212.43419     0.07226   108.75620   237.56581     0.07226
     6.70000   108.32255   212.44418     0.07321   108.32255   237.55582     0.07321
     6.80000   107.98221   212.44613     0.07396   107.98221   237.55387     0.07396
     6.90000   107.56710   212.45613     0.07491   107.56710   237.54387     0.07491
     7.00000   107.24117   212.45830     0.07566   107.24117   237.54170     0.07566
     7.10000   106.84339   212.46835     0.07660   106.84339   237.53165     0.07660
     7.20000   106.53094   212.47074     0.07735   106.53094   237.52926     0.07735
     7.30000   106.14937   212.48083     0.07828   106.14937   237.51917     0.07828
     7.40000   105.84953   212.48345     0.07903   105.84953   237.51655     0.07903
     7.50000   105.48316   212.49360     0.07996   105.48316   237.50640     0.07996
     7.60000   105.19515   212.49644     0.08070   105.19515   237.50356     0.08070
     7.70000   104.84304   212.50666     0.08162   104.84304   237.49334     0.08162
     7.80000   104.56615   212.50972     0.08236   104.56615   237.49028     0.08236
     7.90000   104.22745   212.52002     0.08328   104.22745   237.47998     0.08328
     8.00000   103.96102   212.52330     0.08401   103.96102   237.47670     0.08401
     8.10000   103.63494   212.53368     0.08492   103.63494   237.46632     0.08492
     8.20000   103.37838   212.53718     0.08565   103.37838   237.46282     0.08565
     8.30000   103.06420   212.54766     0.08655   103.06420   237.45234     0.08655
     8.40000   102.75634   212.55815     0.08745   102.75634   237.44185     0.08745
     8.50000   102.51401   212.56196     0.08817   102.51401   237.43804     0.08817
     8.60000   102.21704   212.57256     0.08906   102.21704   237.42744     0.08906
     8.70000   101.98325   212.57658     0.08977   101.98325   237.42342     0.08977
     8.80000   101.69661   212.58729     0.09066   101.69661   237.41271     0.09066
     8.90000   101.47091   212.59154     0.09136   101.47091   237.40846     0.09136
     9.00000   101.19405   212.60237     0.09224   101.19405   237.39763     0.09224
     9.10000   100.92240   212.61323     0.09311   100.92240   237.38677     0.09311
     9.20000   100.70846   212.61779     0.09380   100.70846   237.38221     0.09380
     9.30000   100.44585   212.62878     0.09467   100.44585   237.37122     0.09467
     9.40000   100.23901   212.63356     0.09535   100.23901   237.36644     0.09535
     9.50000    99.98500   212.64469     0.09621    99.98500   237.35531     0.09621
     9.60000    99.73559   212.65586     0.09706    99.73559   237.34414     0.09706
     9.70000    99.53913   212.66095     0.09773    99.53913   237.33905     0.09773
     9.80000    99.29771   212.67226     0.09857    99.29771   237.32774     0.09857
     9.90000    99.06056   212.68362     0.09941    99.06056   237.31638     0.09941
    10.00000    98.87377   212.68903     0.10007    98.87377   237.31097     0.10007
    10.10000    98.64407   212.70053     0.10090    98.64407   237.29947     0.10090
    10.20000    98.41836   212.71209     0.10172    98.41836   237.28791     0.10172
    10.30000    98.24061   212.71782     0.10237    98.24061   237.28218     0.10237
    10.40000    98.02188   212.72954     0.10318    98.02188   237.27046     0.10318
    10.50000    97.80689   212.74131     0.10398    97.80689   237.25869     0.10398
    10.60000    97.63760   212.74735     0.10462    97.63760   237.25265     0.10462
    10.70000    97.42916   212.75929     0.10541    97.42916   237.24071     0.10541
    10.80000    97.22424   212.77129     0.10620    97.22424   237.22871     0.10620
    10.90000    97.02276   212.78335     0.10699    97.02276   237.21665     0.10699
    11.00000    96.86418   212.78981     0.10760    96.86418   237.21019     0.10760
    11.10000    96.66875   212.80204     0.10837    96.66875   237.19796     0.10837
    11.20000    96.47658   212.81433     0.10914    96.47658   237.18567     0.10914
    11.30000    96.28759   212.82670     0.10990    96.28759   237.17330     0.10990
    11.40000    96.10174   212.83914     0.11065    96.10174   237.16086     0.11065
    11.50000    95.95557   212.84611     0.11125    95.95557   237.15389     0.11125
    11.60000    95.77524   212.85872     0.11199    95.77524   237.14128     0.11199
    11.70000    95.59788   212.87140     0.11273    95.59788   237.12860     0.11273
    11.80000    95.42345   212.88416     0.11346    95.42345   237.11584     0.11346
    11.90000    95.25190   212.89699     0.11418    95.25190   237.10301     0.11418
    12.00000    95.08317   212.90989     0.11490    95.08317   237.09011     0.11490
    12.10000    94.95063   212.91748     0.11546    94.95063   237.08252     0.11546
    12.20000    94.78690   212.93056     0.11617    94.78690   237.06944     0.11617
    12.30000    94.62588   212.94372     0.11686    94.62588   237.05628     0.11686
    12.40000    94.46752   212.95695     0.11756    94.46752   237.04305     0.11756
    12.50000    94.31179   212.97027     0.11824    94.31179   237.02973     0.11824
    12.60000    94.15864   212.98366     0.11892    94.15864   237.01634     0.11892
    12.70000    94.00805   212.99712     0.11960    94.00805   237.00288     0.11960
    12.80000    93.85997   213.01067     0.12026    93.85997   236.98933     0.12026
    12.90000    93.71438   213.02430     0.12092    93.71438   236.97570     0.12092
    13.00000    93.57123   213.03800     0.12157    93.57123   236.96200     0.12157
    13.10000    93.43051   213.05178     0.12222    93.43051   236.94822     0.12222
    13.20000    93.29217   213.06565     0.12286    93.29217   236.93435     0.12286
    13.30000    93.15620   213.07959     0.12349    93.15620   236.92041     0.12349
    13.40000    93.02256   213.09360     0.12412    93.02256   236.90640     0.12412
    13.50000    92.86444   213.11282     0.12487    92.86444   236.88718     0.12487
    13.60000    92.73582   213.12698     0.12548    92.73582   236.87302     0.12548
    13.70000    92.60945   213.14122     0.12608    92.60945   236.85878     0.12608
    13.80000    92.48532   213.15553     0.12668    92.48532   236.84447     0.12668
    13.90000    92.36338   213.16992     0.12727    92.36338   236.83008     0.12727
    14.00000    92.24364   213.18439     0.12785    92.24364   236.81561     0.12785
    14.10000    92.10184   213.20395     0.12855    92.10184   236.79605     0.12855
    14.20000    91.98680   213.21855     0.12912    91.98680   236.78145     0.12912
    14.30000    91.87389   213.23323     0.12968    91.87389   236.76677     0.12968
    14.40000    91.74012   213.25295     0.13036    91.74012   236.74705     0.13036
    14.50000    91.63178   213.26776     0.13090    91.63178   236.73224     0.13090
    14.60000    91.52550   213.28264     0.13144    91.52550   236.71736     0.13144
    14.70000    91.39955   213.30252     0.13209    91.39955   236.69748     0.13209
    14.80000    91.29772   213.31752     0.13261    91.29772   236.68248     0.13261
    14.90000    91.19792   213.33260     0.13313    91.19792   236.66740     0.13313
    15.00000    91.07957   213.35262     0.13375    91.07957   236.64738     0.13375
    15.10000    90.98411   213.36781     0.13425    90.98411   236.63219     0.13425
    15.20000    90.87089   213.38792     0.13486    90.87089   236.61208     0.13486
    15.30000    90.76042   213.40805     0.13545    90.76042   236.59195     0.13545
    15.40000    90.67154   213.42340     0.13593    90.67154   236.57660     0.13593
    15.50000    90.56606   213.44362     0.13651    90.56606   236.55638     0.13651
    15.60000    90.48137   213.45907     0.13697    90.48137   236.54093     0.13697
    15.70000    90.38083   213.47935     0.13753    90.38083   236.52065     0.13753
    15.80000    90.28293   213.49965     0.13808    90.28293   236.50035     0.13808
    15.90000    90.18767   213.51997     0.13862    90.18767   236.48003     0.13862
    16.00000    90.09501   213.54030     0.13915    90.09501   236.45970     0.13915
    16.10000    90.02105   213.55595     0.13957    90.02105   236.44405     0.13957
    16.20000    89.93316   213.57633     0.14009    89.93316   236.42367     0.14009
    16.30000    89.84783   213.59672     0.14059    89.84783   236.40328     0.14059
    16.40000    89.76504   213.61711     0.14108    89.76504   236.38289     0.14108
    16.50000    89.68478   213.63750     0.14157    89.68478   236.36250     0.14157
    16.60000    89.60702   213.65790     0.14204    89.60702   236.34210     0.14204
    16.70000    89.53176   213.67828     0.14251    89.53176   236.32172     0.14251
    16.80000    89.44564   213.70322     0.14305    89.44564   236.29678     0.14305
    16.90000    89.37570   213.72357     0.14350    89.37570   236.27643     0.14350
    17.00000    89.30821   213.74389     0.14393    89.30821   236.25611     0.14393
    17.10000    89.23101   213.76869     0.14444    89.23101   236.23131     0.14444
    17.20000    89.16874   213.78895     0.14486    89.16874   236.21105     0.14486
    17.30000    89.10886   213.80918     0.14527    89.10886   236.19082     0.14527
    17.40000    89.04041   213.83379     0.14574    89.04041   236.16621     0.14574
    17.50000    88.97512   213.85831     0.14621    88.97512   236.14169     0.14621
    17.60000    88.92307   213.87837     0.14659    88.92307   236.12163     0.14659
    17.70000    88.86362   213.90272     0.14703    88.86362   236.09728     0.14703
    17.80000    88.80725   213.92696     0.14746    88.80725   236.07304     0.14746
    17.90000    88.75395   213.95107     0.14788    88.75395   236.04893     0.14788
    18.00000    88.70370   213.97506     0.14829    88.70370   236.02494     0.14829
    18.10000    88.65647   213.99892     0.14869    88.65647   236.00108     0.14869
    18.20000    88.61223   214.02263     0.14907    88.61223   235.97737     0.14907
    18.30000    88.57096   214.04619     0.14945    88.57096   235.95381     0.14945
    18.40000    88.52581   214.07371     0.14987    88.52581   235.92629     0.14987
    18.50000    88.49078   214.09690     0.15022    88.49078   235.90310     0.15022
    18.60000    88.45266   214.12395     0.15062    88.45266   235.87605     0.15062
    18.70000    88.41823   214.15073     0.15101    88.41823   235.84927     0.15101
    18.80000    88.39253   214.17329     0.15133    88.39253   235.82671     0.15133
    18.90000    88.36490   214.19954     0.15169    88.36490   235.80046     0.15169
    19.00000    88.33658   214.22933     0.15209    88.33658   235.77067     0.15209
    19.10000    88.31643   214.25490     0.15242    88.31643   235.74510     0.15242
    19.20000    88.29974   214.28013     0.15274    88.29974   235.71987     0.15274
    19.30000    88.28351   214.30871     0.15310    88.28351   235.69129     0.15310
    19.40000    88.27150   214.33681     0.15344    88.27150   235.66319     0.15344
    19.50000    88.26362   214.36441     0.15376    88.26362   235.63559     0.15376
    19.60000    88.25981   214.39149     0.15407    88.25981   235.60851     0.15407
    19.70000    88.25885   214.42148     0.15441    88.25885   235.57852     0.15441
    19.80000    88.26268   214.45076     0.15473    88.26268   235.54924     0.15473
    19.90000    88.27120   214.47932     0.15503    88.27120   235.52068     0.15503
    20.00000    88.28428   214.50712     0.15532    88.28428   235.49288     0.15532
    20.10000    88.30252   214.53727     0.15562    88.30252   235.46273     0.15562
    20.20000    88.32596   214.56643     0.15590    88.32596   235.43357     0.15590
    20.30000    88.35611   214.59750     0.15620    88.35611   235.40250     0.15620
    20.40000    88.39202   214.62732     0.15647    88.39202   235.37268     0.15647
    20.50000    88.43609   214.65853     0.15676    88.43609   235.34147     0.15676
    20.60000    88.48949   214.69075     0.15704    88.48949   235.30925     0.15704
    20.70000    88.54970   214.72109     0.15729    88.54970   235.27891     0.15729
    20.80000    88.62042   214.75177     0.15754    88.62042   235.24823     0.15754
    20.90000    88.70719   214.78439     0.15780    88.70719   235.21561     0.15780
    21.00000    88.80719   214.81592     0.15804    88.80719   235.18408     0.15804
    21.10000    88.93218   214.84912     0.15829    88.93218   235.15088     0.15829
    21.20000    89.08533   214.88182     0.15853    89.08533   235.11818     0.15853
    21.30000    89.28885   214.91487     0.15876    89.28885   235.08513     0.15876
    21.40000    89.61873   214.94839     0.15898    89.61873   235.05161     0.15898
    21.50000    90.00000   214.95740     0.15899    90.00000   235.04260     0.15899
    21.60000    90.00000   214.95111     0.15886    90.00000   235.04889     0.15886
    21.70000    90.00000   214.94480     0.15874    90.00000   235.05520     0.15874
    21.80000    90.00000   214.93848     0.15861    90.00000   235.06152     0.15861
    21.90000    90.00000   214.93215     0.15848    90.00000   235.06785     0.15848
    22.00000    90.00000   214.92582     0.15835    90.00000   235.07418     0.15835
    22.10000    90.00000   214.91947     0.15823    90.00000   235.08053     0.15823
    22.20000    90.00000   214.91311     0.15810    90.00000   235.08689     0.15810
    22.30000    90.00000   214.90675     0.15797    90.00000   235.09325     0.15797
    22.40000    90.00000   214.90037     0.15785    90.00000   235.09963     0.15785
    22.50000    90.00000   214.89399     0.15772    90.00000   235.10601     0.15772
    22.60000    90.00000   214.88760     0.15759    90.00000   235.11240     0.15759
    22.70000    90.00000   214.88119     0.15746    90.00000   235.11881     0.15746
    22.80000    90.00000   214.87478     0.15734    90.00000   235.12522     0.15734
    22.90000    90.00000   214.86836     0.15721    90.00000   235.13164     0.15721
    23.00000    90.00000   214.86192     0.15708    90.00000   235.13808     0.15708
    23.10000    90.00000   214.85548     0.15695    90.00000   235.14452     0.15695
    23.20000    90.00000   214.84903     0.15683    90.00000   235.15097     0.15683
    23.30000    90.00000   214.84257     0.15670    90.00000   235.15743     0.15670
