 # applied field (T), theta (degree), phi (degree), abs [muB/unitcell], abs [T]
       0.00000000       0.00000000       0.00000000      45.00808415       1.50461129
       0.10000000       0.22648194     360.00000000      45.00808345       1.50461127
       0.20000000       0.45296401     360.00000000      45.00808135       1.50461120
       0.30000000       0.67944633     360.00000000      45.00807785       1.50461108
       0.40000000       0.90592904     360.00000000      45.00807295       1.50461092
       0.50000000       1.13241227     360.00000000      45.00806665       1.50461071
       0.60000000       1.35889615     360.00000000      45.00805897       1.50461045
       0.70000000       1.58538080     360.00000000      45.00804989       1.50461014
       0.80000000       1.81186636     360.00000000      45.00803942       1.50460980
       0.90000000       2.03835295     360.00000000      45.00802758       1.50460940
       1.00000000       2.32129151     360.00000000      45.00800905       1.50460878
       1.10000000       2.54778091     360.00000000      45.00799395       1.50460827
       1.20000000       2.77427177     360.00000000      45.00797748       1.50460772
       1.30000000       3.00076421     360.00000000      45.00795967       1.50460713
       1.40000000       3.22725837     360.00000000      45.00794051       1.50460649
       1.50000000       3.45375436     360.00000000      45.00792002       1.50460580
       1.60000000       3.68025233     360.00000000      45.00789821       1.50460507
       1.70000000       3.90675240     360.00000000      45.00787508       1.50460430
       1.80000000       4.13325470     360.00000000      45.00785065       1.50460348
       1.90000000       4.35975936     360.00000000      45.00782492       1.50460262
       2.00000000       4.58626651     360.00000000      45.00779792       1.50460172
       2.10000000       4.81277628     360.00000000      45.00776965       1.50460078
       2.20000000       5.03928879     360.00000000      45.00774013       1.50459979
       2.30000000       5.26580418     360.00000000      45.00770937       1.50459876
       2.40000000       5.49232258     360.00000000      45.00767739       1.50459769
       2.50000000       5.71884411     360.00000000      45.00764420       1.50459658
       2.60000000       5.94536890     360.00000000      45.00760982       1.50459543
       2.70000000       6.17189709     360.00000000      45.00757427       1.50459425
       2.80000000       6.39842880     360.00000000      45.00753756       1.50459302
       2.90000000       6.68142771     360.00000000      45.00748492       1.50459126
       3.00000000       6.90796785     360.00000000      45.00744550       1.50458994
       3.10000000       7.13451193     360.00000000      45.00740499       1.50458859
       3.20000000       7.36106009     360.00000000      45.00736340       1.50458720
       3.30000000       7.58761245     360.00000000      45.00732076       1.50458577
       3.40000000       7.81416914     360.00000000      45.00727708       1.50458431
       3.50000000       8.04073029     360.00000000      45.00723240       1.50458282
       3.60000000       8.26729602     360.00000000      45.00718673       1.50458129
       3.70000000       8.49386648     360.00000000      45.00714009       1.50457973
       3.80000000       8.72044178     360.00000000      45.00709251       1.50457814
       3.90000000       8.94702207     360.00000000      45.00704402       1.50457652
       4.00000000       9.17360745     360.00000000      45.00699464       1.50457487
       4.10000000       9.40019807     360.00000000      45.00694439       1.50457319
       4.20000000       9.62679406     360.00000000      45.00689331       1.50457148
       4.30000000       9.85339554     360.00000000      45.00684142       1.50456975
       4.40000000      10.08000265     360.00000000      45.00678874       1.50456799
       4.50000000      10.30661550     360.00000000      45.00673531       1.50456620
       4.60000000      10.53323424     360.00000000      45.00668116       1.50456439
       4.70000000      10.75985899     360.00000000      45.00662631       1.50456255
       4.80000000      11.04297860     360.00000000      45.00654839       1.50455995
       4.90000000      11.26961741     360.00000000      45.00649192       1.50455806
       5.00000000      11.49626265     360.00000000      45.00643486       1.50455615
       5.10000000      11.72291446     360.00000000      45.00637724       1.50455423
       5.20000000      11.94957296     360.00000000      45.00631908       1.50455228
       5.30000000      12.17623828     360.00000000      45.00626043       1.50455032
       5.40000000      12.40291056     360.00000000      45.00620132       1.50454835
       5.50000000      12.62958992     360.00000000      45.00614178       1.50454636
       5.60000000      12.85627649     360.00000000      45.00608184       1.50454435
       5.70000000      13.08297040     360.00000000      45.00602156       1.50454234
       5.80000000      13.30967178     360.00000000      45.00596095       1.50454031
       5.90000000      13.53638077     360.00000000      45.00590006       1.50453828
       6.00000000      13.76309749     360.00000000      45.00583892       1.50453623
       6.10000000      13.98982207     360.00000000      45.00577757       1.50453418
       6.20000000      14.21655465     360.00000000      45.00571606       1.50453213
       6.30000000      14.44329535     360.00000000      45.00565441       1.50453006
       6.40000000      14.67004431     360.00000000      45.00559268       1.50452800
       6.50000000      14.89680165     360.00000000      45.00553090       1.50452594
       6.60000000      15.12356750     360.00000000      45.00546910       1.50452387
       6.70000000      15.35034201     360.00000000      45.00540734       1.50452181
       6.80000000      15.63365394     360.00000000      45.00531851       1.50451884
       6.90000000      15.86044847     360.00000000      45.00525682       1.50451677
       7.00000000      16.08725207     360.00000000      45.00519530       1.50451472
       7.10000000      16.31406487     360.00000000      45.00513399       1.50451267
       7.20000000      16.54088701     360.00000000      45.00507294       1.50451063
       7.30000000      16.76771862     360.00000000      45.00501220       1.50450860
       7.40000000      16.99455984     360.00000000      45.00495180       1.50450658
       7.50000000      17.22141079     360.00000000      45.00489180       1.50450457
       7.60000000      17.44827160     360.00000000      45.00483224       1.50450258
       7.70000000      17.67514241     360.00000000      45.00477316       1.50450060
       7.80000000      17.90202336     360.00000000      45.00471462       1.50449865
       7.90000000      18.12891457     360.00000000      45.00465667       1.50449671
       8.00000000      18.35581618     360.00000000      45.00459934       1.50449479
       8.10000000      18.58272832     360.00000000      45.00454269       1.50449290
       8.20000000      18.80965112     360.00000000      45.00448676       1.50449103
       8.30000000      19.03658472     360.00000000      45.00443162       1.50448919
       8.40000000      19.26352926     360.00000000      45.00437730       1.50448737
       8.50000000      19.49048486     360.00000000      45.00432386       1.50448558
       8.60000000      19.71745167     360.00000000      45.00427135       1.50448383
       8.70000000      20.00100942     360.00000000      45.00419238       1.50448119
       8.80000000      20.22800203     360.00000000      45.00414200       1.50447951
       8.90000000      20.45500628     360.00000000      45.00409271       1.50447786
       9.00000000      20.68202232     360.00000000      45.00404457       1.50447625
       9.10000000      20.90905026     360.00000000      45.00399764       1.50447468
       9.20000000      21.13609026     360.00000000      45.00395196       1.50447315
       9.30000000      21.36314244     360.00000000      45.00390759       1.50447167
       9.40000000      21.59020695     360.00000000      45.00386459       1.50447023
       9.50000000      21.81728392     360.00000000      45.00382300       1.50446884
       9.60000000      22.04437349     360.00000000      45.00378288       1.50446750
       9.70000000      22.27147580     360.00000000      45.00374430       1.50446621
       9.80000000      22.49859098     360.00000000      45.00370729       1.50446497
       9.90000000      22.72571918     360.00000000      45.00367193       1.50446379
      10.00000000      22.95286054     360.00000000      45.00363826       1.50446267
      10.10000000      23.18001518     360.00000000      45.00360635       1.50446160
      10.20000000      23.40718327     360.00000000      45.00357624       1.50446059
      10.30000000      23.63436492     360.00000000      45.00354800       1.50445965
      10.40000000      23.91819665     360.00000000      45.00349823       1.50445798
      10.50000000      24.14540950     360.00000000      45.00347426       1.50445718
      10.60000000      24.37263638     360.00000000      45.00345234       1.50445645
      10.70000000      24.59987744     360.00000000      45.00343253       1.50445579
      10.80000000      24.82713282     360.00000000      45.00341490       1.50445520
      10.90000000      25.05440266     360.00000000      45.00339948       1.50445468
      11.00000000      25.28168711     360.00000000      45.00338636       1.50445424
      11.10000000      25.50898631     360.00000000      45.00337558       1.50445388
      11.20000000      25.73630040     360.00000000      45.00336720       1.50445360
      11.30000000      25.96362954     360.00000000      45.00336129       1.50445341
      11.40000000      26.19097386     360.00000000      45.00335790       1.50445329
      11.50000000      26.41833352     360.00000000      45.00335709       1.50445327
      11.60000000      26.64570865     360.00000000      45.00335892       1.50445333
      11.70000000      26.87309941     360.00000000      45.00336345       1.50445348
      11.80000000      27.15719745     360.00000000      45.00335397       1.50445316
      11.90000000      27.38462406     360.00000000      45.00336466       1.50445352
      12.00000000      27.61206678     360.00000000      45.00337825       1.50445397
      12.10000000      27.83952576     360.00000000      45.00339480       1.50445453
      12.20000000      28.06700115     360.00000000      45.00341436       1.50445518
      12.30000000      28.29449310     360.00000000      45.00343699       1.50445594
      12.40000000      28.52200175     360.00000000      45.00346275       1.50445680
      12.50000000      28.74952727     360.00000000      45.00349170       1.50445777
      12.60000000      28.97706981     360.00000000      45.00352391       1.50445884
      12.70000000      29.20462951     360.00000000      45.00355942       1.50446003
      12.80000000      29.43220653     360.00000000      45.00359830       1.50446133
      12.90000000      29.71654159     360.00000000      45.00363136       1.50446243
      13.00000000      29.94415831     360.00000000      45.00367792       1.50446399
      13.10000000      30.17179286     360.00000000      45.00372804       1.50446567
      13.20000000      30.39944538     360.00000000      45.00378177       1.50446746
      13.30000000      30.62711604     360.00000000      45.00383919       1.50446938
      13.40000000      30.85480498     360.00000000      45.00390033       1.50447143
      13.50000000      31.08251238     360.00000000      45.00396527       1.50447360
      13.60000000      31.31023838     360.00000000      45.00403405       1.50447590
      13.70000000      31.53798315     360.00000000      45.00410674       1.50447833
      13.80000000      31.82253158     360.00000000      45.00418180       1.50448084
      13.90000000      32.05031933     360.00000000      45.00426337       1.50448356
      14.00000000      32.27812637     360.00000000      45.00434902       1.50448643
      14.10000000      32.50595285     360.00000000      45.00443881       1.50448943
      14.20000000      32.73379893     360.00000000      45.00453280       1.50449257
      14.30000000      32.96166478     360.00000000      45.00463103       1.50449585
      14.40000000      33.18955055     360.00000000      45.00473357       1.50449928
      14.50000000      33.47427828     360.00000000      45.00484578       1.50450303
      14.60000000      33.70220968     360.00000000      45.00495808       1.50450679
      14.70000000      33.93016154     360.00000000      45.00507486       1.50451069
      14.80000000      34.15813402     360.00000000      45.00519615       1.50451475
      14.90000000      34.38612729     360.00000000      45.00532201       1.50451895
      15.00000000      34.61414150     360.00000000      45.00545249       1.50452331
      15.10000000      34.89903249     360.00000000      45.00559951       1.50452823
      15.20000000      35.12709465     360.00000000      45.00574046       1.50453294
      15.30000000      35.35517829     360.00000000      45.00588619       1.50453781
      15.40000000      35.58328358     360.00000000      45.00603673       1.50454285
      15.50000000      35.81141069     360.00000000      45.00619213       1.50454804
      15.60000000      36.09644515     360.00000000      45.00637020       1.50455399
      15.70000000      36.32462216     360.00000000      45.00653662       1.50455956
      15.80000000      36.55282153     360.00000000      45.00670802       1.50456529
      15.90000000      36.78104342     360.00000000      45.00688447       1.50457119
      16.00000000      37.06619830     360.00000000      45.00708877       1.50457801
      16.10000000      37.29447170     360.00000000      45.00727661       1.50458429
      16.20000000      37.52276815     360.00000000      45.00746961       1.50459075
      16.30000000      37.75108783     360.00000000      45.00766780       1.50459737
      16.40000000      38.03636692     360.00000000      45.00789920       1.50460511
      16.50000000      38.26473970     360.00000000      45.00810913       1.50461213
      16.60000000      38.49313623     360.00000000      45.00832435       1.50461932
      16.70000000      38.77851294     360.00000000      45.00857698       1.50462777
      16.80000000      39.00696377     360.00000000      45.00880416       1.50463536
      16.90000000      39.23543891     360.00000000      45.00903672       1.50464313
      17.00000000      39.46393849     360.00000000      45.00927469       1.50465109
      17.10000000      39.74944605     360.00000000      45.00955566       1.50466048
      17.20000000      39.97800150     360.00000000      45.00980583       1.50466885
      17.30000000      40.20658193     360.00000000      45.01006146       1.50467739
      17.40000000      40.49219213     360.00000000      45.01036443       1.50468752
      17.50000000      40.72082960     360.00000000      45.01063240       1.50469648
      17.60000000      41.00651220     360.00000000      45.01095072       1.50470712
      17.70000000      41.23520752     360.00000000      45.01123108       1.50471649
      17.80000000      41.46392868     360.00000000      45.01151699       1.50472605
      17.90000000      41.74971748     360.00000000      45.01185764       1.50473744
      18.00000000      41.97849761     360.00000000      45.01215600       1.50474741
      18.10000000      42.26436124     360.00000000      45.01251216       1.50475932
      18.20000000      42.49320112     360.00000000      45.01282300       1.50476971
      18.30000000      42.77914053     360.00000000      45.01319466       1.50478213
      18.40000000      43.00804090     360.00000000      45.01351797       1.50479294
      18.50000000      43.29405703     360.00000000      45.01390514       1.50480588
      18.60000000      43.52301860     360.00000000      45.01424088       1.50481711
      18.70000000      43.80911236     360.00000000      45.01464350       1.50483057
      18.80000000      44.03813584     360.00000000      45.01499161       1.50484221
      18.90000000      44.32430810     360.00000000      45.01540961       1.50485618
      19.00000000      44.61052450     360.00000000      45.01583609       1.50487044
      19.10000000      44.83964575     360.00000000      45.01620328       1.50488271
      19.20000000      45.12594194     360.00000000      45.01664495       1.50489748
      19.30000000      45.35512676     360.00000000      45.01702424       1.50491016
      19.40000000      45.64150352     360.00000000      45.01748094       1.50492542
      19.50000000      45.92792554     360.00000000      45.01794589       1.50494097
      19.60000000      46.15721055     360.00000000      45.01834372       1.50495427
      19.70000000      46.44371426     360.00000000      45.01882337       1.50497030
      19.80000000      46.73026382     360.00000000      45.01931109       1.50498660
      19.90000000      47.01685944     360.00000000      45.01980679       1.50500318
      20.00000000      47.30350130     360.00000000      45.02031038       1.50502001
      20.10000000      47.53296120     360.00000000      45.02073881       1.50503433
      20.20000000      47.81968639     360.00000000      45.02125636       1.50505163
      20.30000000      48.10645829     360.00000000      45.02178151       1.50506919
      20.40000000      48.39327705     360.00000000      45.02231417       1.50508700
      20.50000000      48.68014282     360.00000000      45.02285420       1.50510505
      20.60000000      48.96705571     360.00000000      45.02340150       1.50512335
      20.70000000      49.25401585     360.00000000      45.02395592       1.50514188
      20.80000000      49.54102334     360.00000000      45.02451734       1.50516065
      20.90000000      49.82807826     360.00000000      45.02508562       1.50517965
      21.00000000      50.11518069     360.00000000      45.02566060       1.50519887
      21.10000000      50.40233070     360.00000000      45.02624214       1.50521831
      21.20000000      50.74686491     360.00000000      45.02692872       1.50524126
      21.30000000      51.03412015     360.00000000      45.02752415       1.50526117
      21.40000000      51.32142310     360.00000000      45.02812561       1.50528127
      21.50000000      51.60877374     360.00000000      45.02873293       1.50530157
      21.60000000      51.95355057     360.00000000      45.02944967       1.50532554
      21.70000000      52.24100654     360.00000000      45.03006927       1.50534625
      21.80000000      52.52851012     360.00000000      45.03069415       1.50536714
      21.90000000      52.87347174     360.00000000      45.03143131       1.50539178
      22.00000000      53.16108032     360.00000000      45.03206713       1.50541304
      22.10000000      53.50616873     360.00000000      45.03281696       1.50543810
      22.20000000      53.85132631     360.00000000      45.03357324       1.50546339
      22.30000000      54.13909648     360.00000000      45.03422406       1.50548514
      22.40000000      54.48437988     360.00000000      45.03499115       1.50551079
      22.50000000      54.82973181     360.00000000      45.03576366       1.50553661
      22.60000000      55.17515197     360.00000000      45.03654120       1.50556260
      22.70000000      55.52064006     360.00000000      45.03732339       1.50558875
      22.80000000      55.86619571     360.00000000      45.03810984       1.50561504
      22.90000000      56.21181853     360.00000000      45.03890017       1.50564146
      23.00000000      56.55750811     360.00000000      45.03969398       1.50566800
