 # applied field (T), theta (degree), phi (degree), abs for RE 3-4
     0.00000     1.02300   135.00000     0.31080     1.02300    45.00000     0.31080
     0.10000     0.89076   129.07542     0.31080     1.16391    40.47169     0.31082
     0.20000     0.77149   121.20348     0.31080     1.31083    36.94059     0.31083
     0.30000     0.66086   109.40860     0.31080     1.48043    33.90253     0.31086
     0.40000     0.59497    95.57543     0.31081     1.63526    31.67205     0.31089
     0.50000     0.57080    79.49202     0.31083     1.79262    29.82968     0.31092
     0.60000     0.59355    63.35634     0.31085     1.95207    28.28557     0.31096
     0.70000     0.66691    47.92193     0.31089     2.13265    26.87867     0.31101
     0.80000     0.76653    37.32226     0.31092     2.29570    25.76925     0.31107
     0.90000     0.88650    29.36417     0.31096     2.46023    24.80598     0.31112
     1.00000     1.01986    23.38924     0.31100     2.62614    23.96220     0.31118
     1.10000     1.17847    18.31558     0.31106     2.81347    23.16940     0.31126
     1.20000     1.32788    14.87661     0.31112     2.98223    22.51374     0.31134
     1.30000     1.48177    12.14309     0.31118     3.15231    21.92649     0.31141
     1.40000     1.65714     9.65340     0.31126     3.34438    21.36708     0.31151
     1.50000     1.81765     7.87575     0.31133     3.51732    20.89178     0.31160
     1.60000     1.98046     6.39029     0.31141     3.69164    20.45891     0.31170
     1.70000     2.16442     4.96384     0.31151     3.88869    20.04271     0.31181
     1.80000     2.33140     3.91114     0.31160     4.06607    19.68124     0.31192
     1.90000     2.50010     3.00206     0.31169     4.24493    19.34770     0.31203
     2.00000     2.69042     2.09630     0.31181     4.44739    19.02481     0.31216
     2.10000     2.86263     1.41478     0.31191     4.62959    18.73925     0.31228
     2.20000     3.05698     0.72270     0.31204     4.83605    18.46172     0.31243
     2.30000     3.23261     0.19775     0.31216     5.02180    18.21369     0.31256
     2.40000     3.43098   359.65623     0.31230     5.23251    17.97177     0.31272
     2.50000     3.61010   359.24337     0.31243     5.42203    17.75357     0.31286
     2.60000     3.81262   358.81181     0.31258     5.63726    17.54002     0.31303
     2.70000     3.99535   358.48183     0.31271     5.83076    17.34588     0.31318
     2.80000     4.20220   358.13295     0.31288     6.05077    17.15522     0.31336
     2.90000     4.41147   357.82012     0.31305     6.27346    16.97458     0.31354
     3.00000     4.60011   357.58069     0.31320     6.47353    16.80875     0.31370
     3.10000     4.81406   357.32377     0.31338     6.70141    16.64501     0.31390
     3.20000     5.03065   357.09184     0.31357     6.93219    16.48872     0.31410
     3.30000     5.22569   356.91474     0.31373     7.13935    16.34418     0.31427
     3.40000     5.44735   356.72226     0.31393     7.37570    16.20066     0.31448
     3.50000     5.67185   356.54778     0.31413     7.61516    16.06280     0.31470
     3.60000     5.89928   356.38946     0.31434     7.85779    15.93014     0.31492
     3.70000     6.12971   356.24571     0.31455     8.10367    15.80224     0.31514
     3.80000     6.36321   356.11512     0.31476     8.35287    15.67873     0.31537
     3.90000     6.59987   355.99644     0.31498     8.60544    15.55926     0.31560
     4.00000     6.83976   355.88857     0.31521     8.86147    15.44353     0.31583
     4.10000     7.11081   355.77333     0.31547     9.15142    15.32700     0.31611
     4.20000     7.35789   355.68554     0.31571     9.41504    15.21799     0.31635
     4.30000     7.60843   355.60583     0.31594     9.68230    15.11196     0.31660
     4.40000     7.89198   355.51995     0.31622     9.98536    15.00447     0.31689
     4.50000     8.15021   355.45538     0.31647    10.26062    14.90387     0.31714
     4.60000     8.44275   355.38541     0.31675    10.57298    14.80141     0.31743
     4.70000     8.70899   355.33339     0.31700    10.85650    14.70559     0.31769
     4.80000     9.01090   355.27668     0.31730    11.17844    14.60757     0.31799
     4.90000     9.31795   355.22616     0.31759    11.50561    14.51158     0.31830
     5.00000     9.63024   355.18129     0.31789    11.83806    14.41750     0.31860
     5.10000     9.94786   355.14154     0.31820    12.17587    14.32525     0.31891
     5.20000    10.27092   355.10645     0.31850    12.51909    14.23473     0.31922
     5.30000    10.59949   355.07561     0.31881    12.86779    14.14590     0.31953
     5.40000    10.96973   355.04293     0.31916    13.26073    14.05403     0.31989
     5.50000    11.31032   355.01994     0.31947    13.62124    13.96834     0.32020
     5.60000    11.69432   354.99537     0.31982    14.02761    13.87945     0.32056
     5.70000    12.08577   354.97450     0.32018    14.44118    13.79197     0.32091
     5.80000    12.48478   354.95694     0.32054    14.86201    13.70589     0.32127
     5.90000    12.89144   354.94233     0.32089    15.29014    13.62118     0.32163
     6.00000    13.34705   354.92728     0.32129    15.76922    13.53301     0.32203
     6.10000    13.81237   354.91519     0.32169    16.25743    13.44616     0.32243
     6.20000    14.28752   354.90567     0.32209    16.75479    13.36065     0.32283
     6.30000    14.77260   354.89839     0.32249    17.26132    13.27650     0.32322
     6.40000    15.31303   354.89111     0.32292    17.82446    13.18884     0.32365
     6.50000    15.86572   354.88588     0.32335    18.39872    13.10258     0.32408
     6.60000    16.47848   354.88084     0.32382    19.03365    13.01290     0.32455
     6.70000    17.10609   354.87749     0.32429    19.68175    12.92477     0.32501
     6.80000    17.79895   354.87428     0.32479    20.39483    12.83340     0.32550
     6.90000    92.27760   350.63788     0.33382    87.72240     9.36212     0.33382
     7.00000    92.27681   350.64106     0.33384    87.72319     9.35894     0.33384
     7.10000    92.27602   350.64423     0.33386    87.72398     9.35577     0.33386
     7.20000    92.27523   350.64741     0.33389    87.72477     9.35259     0.33389
     7.30000    92.27444   350.65058     0.33391    87.72556     9.34942     0.33391
     7.40000    92.27366   350.65375     0.33393    87.72634     9.34625     0.33393
     7.50000    92.27287   350.65693     0.33395    87.72713     9.34307     0.33395
     7.60000    92.27208   350.66010     0.33397    87.72792     9.33990     0.33397
     7.70000    92.27129   350.66327     0.33399    87.72871     9.33673     0.33399
     7.80000    92.27050   350.66643     0.33401    87.72950     9.33357     0.33401
     7.90000    92.26972   350.66960     0.33404    87.73028     9.33040     0.33404
     8.00000    92.26893   350.67277     0.33406    87.73107     9.32723     0.33406
     8.10000    92.26814   350.67593     0.33408    87.73186     9.32407     0.33408
     8.20000    92.26736   350.67910     0.33410    87.73264     9.32090     0.33410
     8.30000    92.26657   350.68226     0.33412    87.73343     9.31774     0.33412
     8.40000    92.26578   350.68542     0.33414    87.73422     9.31458     0.33414
     8.50000    92.26500   350.68858     0.33416    87.73500     9.31142     0.33416
     8.60000    92.26421   350.69175     0.33419    87.73579     9.30825     0.33419
     8.70000    92.26343   350.69490     0.33421    87.73657     9.30510     0.33421
     8.80000    92.26264   350.69806     0.33423    87.73736     9.30194     0.33423
     8.90000    92.26186   350.70122     0.33425    87.73814     9.29878     0.33425
     9.00000    92.26107   350.70438     0.33427    87.73893     9.29562     0.33427
     9.10000    92.26029   350.70753     0.33429    87.73971     9.29247     0.33429
     9.20000    92.25951   350.71069     0.33431    87.74049     9.28931     0.33431
     9.30000    92.25872   350.71384     0.33433    87.74128     9.28616     0.33433
     9.40000    92.25794   350.71699     0.33436    87.74206     9.28301     0.33436
     9.50000    92.25716   350.72014     0.33438    87.74284     9.27986     0.33438
     9.60000    92.25637   350.72329     0.33440    87.74363     9.27671     0.33440
     9.70000    92.25559   350.72644     0.33442    87.74441     9.27356     0.33442
     9.80000    92.25481   350.72959     0.33444    87.74519     9.27041     0.33444
     9.90000    92.25403   350.73274     0.33446    87.74597     9.26726     0.33446
    10.00000    92.25324   350.73588     0.33448    87.74676     9.26412     0.33448
    10.10000    92.25246   350.73903     0.33451    87.74754     9.26097     0.33451
    10.20000    92.25168   350.74217     0.33453    87.74832     9.25783     0.33453
    10.30000    92.25090   350.74531     0.33455    87.74910     9.25469     0.33455
    10.40000    92.25012   350.74846     0.33457    87.74988     9.25154     0.33457
    10.50000    92.24934   350.75160     0.33459    87.75066     9.24840     0.33459
    10.60000    92.24856   350.75474     0.33461    87.75144     9.24526     0.33461
    10.70000    92.24778   350.75788     0.33464    87.75222     9.24212     0.33464
    10.80000    92.24700   350.76101     0.33466    87.75300     9.23899     0.33466
    10.90000    92.24622   350.76415     0.33468    87.75378     9.23585     0.33468
    11.00000    92.24544   350.76729     0.33470    87.75456     9.23271     0.33470
    11.10000    92.24466   350.77042     0.33472    87.75534     9.22958     0.33472
    11.20000    92.24388   350.77355     0.33474    87.75612     9.22645     0.33474
    11.30000    92.24310   350.77669     0.33476    87.75690     9.22331     0.33476
    11.40000    92.24232   350.77982     0.33479    87.75768     9.22018     0.33479
    11.50000    92.24155   350.78295     0.33481    87.75845     9.21705     0.33481
    11.60000    92.24077   350.78608     0.33483    87.75923     9.21392     0.33483
    11.70000    92.23999   350.78921     0.33485    87.76001     9.21079     0.33485
    11.80000    92.23921   350.79234     0.33487    87.76079     9.20766     0.33487
    11.90000    92.23844   350.79546     0.33489    87.76156     9.20454     0.33489
    12.00000    92.23766   350.79859     0.33491    87.76234     9.20141     0.33491
    12.10000    92.23688   350.80171     0.33494    87.76312     9.19829     0.33494
    12.20000    92.23611   350.80484     0.33496    87.76389     9.19516     0.33496
    12.30000    92.23533   350.80796     0.33498    87.76467     9.19204     0.33498
    12.40000    92.23456   350.81108     0.33500    87.76544     9.18892     0.33500
    12.50000    92.23378   350.81420     0.33502    87.76622     9.18580     0.33502
    12.60000    92.23301   350.81732     0.33504    87.76699     9.18268     0.33504
    12.70000    92.23223   350.82044     0.33507    87.76777     9.17956     0.33507
    12.80000    92.23146   350.82356     0.33509    87.76854     9.17644     0.33509
    12.90000    92.23068   350.82667     0.33511    87.76932     9.17333     0.33511
    13.00000    92.22991   350.82979     0.33513    87.77009     9.17021     0.33513
    13.10000    92.22913   350.83290     0.33515    87.77087     9.16710     0.33515
    13.20000    92.22836   350.83602     0.33517    87.77164     9.16398     0.33517
    13.30000    92.22759   350.83913     0.33520    87.77241     9.16087     0.33520
    13.40000    92.22681   350.84224     0.33522    87.77319     9.15776     0.33522
    13.50000    92.22604   350.84535     0.33524    87.77396     9.15465     0.33524
    13.60000    92.22527   350.84846     0.33526    87.77473     9.15154     0.33526
    13.70000    92.22449   350.85157     0.33528    87.77551     9.14843     0.33528
    13.80000    92.22372   350.85468     0.33530    87.77628     9.14532     0.33530
    13.90000    92.22295   350.85778     0.33532    87.77705     9.14222     0.33532
    14.00000    92.22218   350.86089     0.33535    87.77782     9.13911     0.33535
    14.10000    92.22141   350.86399     0.33537    87.77859     9.13601     0.33537
    14.20000    92.22064   350.86710     0.33539    87.77936     9.13290     0.33539
    14.30000    92.21987   350.87020     0.33541    87.78013     9.12980     0.33541
    14.40000    92.21909   350.87330     0.33543    87.78091     9.12670     0.33543
    14.50000    92.21832   350.87640     0.33545    87.78168     9.12360     0.33545
    14.60000    92.21755   350.87950     0.33548    87.78245     9.12050     0.33548
    14.70000    92.21678   350.88260     0.33550    87.78322     9.11740     0.33550
    14.80000    92.21601   350.88570     0.33552    87.78399     9.11430     0.33552
    14.90000    92.21525   350.88879     0.33554    87.78475     9.11121     0.33554
    15.00000    92.21448   350.89189     0.33556    87.78552     9.10811     0.33556
    15.10000    92.21371   350.89498     0.33558    87.78629     9.10502     0.33558
    15.20000    92.21294   350.89808     0.33561    87.78706     9.10192     0.33561
    15.30000    92.21217   350.90117     0.33563    87.78783     9.09883     0.33563
    15.40000    92.21140   350.90426     0.33565    87.78860     9.09574     0.33565
    15.50000    92.21063   350.90735     0.33567    87.78937     9.09265     0.33567
    15.60000    92.20987   350.91044     0.33569    87.79013     9.08956     0.33569
    15.70000    92.20910   350.91353     0.33571    87.79090     9.08647     0.33571
    15.80000    92.20833   350.91662     0.33574    87.79167     9.08338     0.33574
    15.90000    92.20757   350.91971     0.33576    87.79243     9.08029     0.33576
    16.00000    92.20680   350.92279     0.33578    87.79320     9.07721     0.33578
    16.10000    92.20603   350.92588     0.33580    87.79397     9.07412     0.33580
    16.20000    92.20527   350.92896     0.33582    87.79473     9.07104     0.33582
    16.30000    92.20450   350.93204     0.33584    87.79550     9.06796     0.33584
    16.40000    92.20374   350.93512     0.33587    87.79626     9.06488     0.33587
    16.50000    92.20297   350.93820     0.33589    87.79703     9.06180     0.33589
    16.60000    92.20220   350.94128     0.33591    87.79780     9.05872     0.33591
    16.70000    92.20144   350.94436     0.33593    87.79856     9.05564     0.33593
    16.80000    92.20068   350.94744     0.33595    87.79932     9.05256     0.33595
    16.90000    92.19991   350.95052     0.33598    87.80009     9.04948     0.33598
    17.00000    92.19915   350.95359     0.33600    87.80085     9.04641     0.33600
    17.10000    92.19838   350.95667     0.33602    87.80162     9.04333     0.33602
    17.20000    92.19762   350.95974     0.33604    87.80238     9.04026     0.33604
    17.30000    92.19686   350.96281     0.33606    87.80314     9.03719     0.33606
    17.40000    92.19609   350.96588     0.33608    87.80391     9.03412     0.33608
    17.50000    92.19533   350.96896     0.33611    87.80467     9.03104     0.33611
    17.60000    92.19457   350.97202     0.33613    87.80543     9.02798     0.33613
    17.70000    92.19381   350.97509     0.33615    87.80619     9.02491     0.33615
    17.80000    92.19304   350.97816     0.33617    87.80696     9.02184     0.33617
    17.90000    92.19228   350.98123     0.33619    87.80772     9.01877     0.33619
    18.00000    92.19152   350.98429     0.33621    87.80848     9.01571     0.33621
    18.10000    92.19076   350.98736     0.33624    87.80924     9.01264     0.33624
    18.20000    92.19000   350.99042     0.33626    87.81000     9.00958     0.33626
    18.30000    92.18924   350.99349     0.33628    87.81076     9.00651     0.33628
    18.40000    92.18848   350.99655     0.33630    87.81152     9.00345     0.33630
    18.50000    92.18772   350.99961     0.33632    87.81228     9.00039     0.33632
    18.60000    92.18696   351.00267     0.33635    87.81304     8.99733     0.33635
    18.70000    92.18620   351.00573     0.33637    87.81380     8.99427     0.33637
    18.80000    92.18544   351.00878     0.33639    87.81456     8.99122     0.33639
    18.90000    92.18468   351.01184     0.33641    87.81532     8.98816     0.33641
    19.00000    92.18392   351.01490     0.33643    87.81608     8.98510     0.33643
    19.10000    92.18316   351.01795     0.33645    87.81684     8.98205     0.33645
    19.20000    92.18240   351.02101     0.33648    87.81760     8.97899     0.33648
    19.30000    92.18164   351.02406     0.33650    87.81836     8.97594     0.33650
    19.40000    92.18088   351.02711     0.33652    87.81912     8.97289     0.33652
    19.50000    92.18013   351.03016     0.33654    87.81987     8.96984     0.33654
    19.60000    92.17937   351.03321     0.33656    87.82063     8.96679     0.33656
    19.70000    92.17861   351.03626     0.33659    87.82139     8.96374     0.33659
    19.80000    92.17785   351.03931     0.33661    87.82215     8.96069     0.33661
    19.90000    92.17710   351.04236     0.33663    87.82290     8.95764     0.33663
    20.00000    92.17634   351.04540     0.33665    87.82366     8.95460     0.33665
    20.10000    92.17558   351.04845     0.33667    87.82442     8.95155     0.33667
    20.20000    92.17483   351.05149     0.33670    87.82517     8.94851     0.33670
    20.30000    92.17407   351.05454     0.33672    87.82593     8.94546     0.33672
    20.40000    92.17332   351.05758     0.33674    87.82668     8.94242     0.33674
    20.50000    92.17256   351.06062     0.33676    87.82744     8.93938     0.33676
    20.60000    92.17180   351.06366     0.33678    87.82820     8.93634     0.33678
    20.70000    92.17105   351.06670     0.33680    87.82895     8.93330     0.33680
    20.80000    92.17030   351.06974     0.33683    87.82970     8.93026     0.33683
    20.90000    92.16954   351.07278     0.33685    87.83046     8.92722     0.33685
    21.00000    92.16879   351.07581     0.33687    87.83121     8.92419     0.33687
    21.10000    92.16803   351.07885     0.33689    87.83197     8.92115     0.33689
    21.20000    92.16728   351.08188     0.33691    87.83272     8.91812     0.33691
    21.30000    92.16653   351.08492     0.33694    87.83347     8.91508     0.33694
    21.40000    92.16577   351.08795     0.33696    87.83423     8.91205     0.33696
    21.50000    92.16502   351.09098     0.33698    87.83498     8.90902     0.33698
    21.60000    92.16427   351.09401     0.33700    87.83573     8.90599     0.33700
    21.70000    92.16351   351.09704     0.33702    87.83649     8.90296     0.33702
    21.80000    92.16276   351.10007     0.33705    87.83724     8.89993     0.33705
    21.90000    92.16201   351.10310     0.33707    87.83799     8.89690     0.33707
    22.00000    92.16126   351.10612     0.33709    87.83874     8.89388     0.33709
    22.10000    92.16051   351.10915     0.33711    87.83949     8.89085     0.33711
    22.20000    92.15976   351.11217     0.33713    87.84024     8.88783     0.33713
    22.30000    92.15900   351.11520     0.33716    87.84100     8.88480     0.33716
    22.40000    92.15825   351.11822     0.33718    87.84175     8.88178     0.33718
    22.50000    92.15750   351.12124     0.33720    87.84250     8.87876     0.33720
    22.60000    92.15675   351.12426     0.33722    87.84325     8.87574     0.33722
    22.70000    92.15600   351.12728     0.33724    87.84400     8.87272     0.33724
    22.80000    92.15525   351.13030     0.33727    87.84475     8.86970     0.33727
    22.90000    92.15450   351.13332     0.33729    87.84550     8.86668     0.33729
    23.00000    92.15375   351.13634     0.33731    87.84625     8.86366     0.33731
    23.10000    92.15300   351.13935     0.33733    87.84700     8.86065     0.33733
    23.20000    92.15226   351.14237     0.33735    87.84774     8.85763     0.33735
    23.30000    92.15151   351.14538     0.33738    87.84849     8.85462     0.33738
