 # applied field (T), theta (degree), phi (degree), abs for RE 1-2
     0.00000   178.18537   135.00000     4.40135   178.18537    45.00000     4.40135
     0.10000   177.92949   141.41148     4.40141   178.41145    53.37179     4.40129
     0.20000   177.69392   145.72999     4.40144   178.57069    62.49197     4.40123
     0.30000   177.40593   149.74996     4.40148   178.69944    75.55071     4.40115
     0.40000   177.10779   152.95378     4.40150   178.74883    90.51714     4.40105
     0.50000   176.80233   155.55211     4.40152   178.70958   105.61294     4.40095
     0.60000   176.53611   157.41126     4.40152   178.61050   117.21704     4.40086
     0.70000   176.22165   159.24694     4.40152   178.43444   128.37617     4.40073
     0.80000   175.90387   160.79927     4.40150   178.21160   137.03116     4.40060
     0.90000   175.58346   162.12737     4.40148   177.95708   143.65899     4.40046
     1.00000   175.30710   163.12103     4.40145   177.72158   148.11731     4.40033
     1.10000   174.98305   164.14181     4.40141   177.43270   152.25881     4.40017
     1.20000   174.65749   165.03866     4.40136   177.13283   155.55237     4.40000
     1.30000   174.33064   165.83252     4.40130   176.82496   158.21808     4.39982
     1.40000   174.00268   166.53992     4.40123   176.51108   160.41120     4.39963
     1.50000   173.72075   167.08750     4.40116   176.23828   161.99999     4.39946
     1.60000   173.39103   167.66750     4.40107   175.91653   163.58536     4.39925
     1.70000   173.06049   168.19255     4.40097   175.59169   164.94017     4.39903
     1.80000   172.72919   168.67003     4.40086   175.26426   166.11019     4.39879
     1.90000   172.39719   169.10608     4.40075   174.93464   167.13014     4.39855
     2.00000   172.06452   169.50582     4.40062   174.60310   168.02670     4.39830
     2.10000   171.73122   169.87359     4.40049   174.26986   168.82073     4.39804
     2.20000   171.39729   170.21305     4.40034   173.93510   169.52868     4.39777
     2.30000   171.06276   170.52733     4.40019   173.59892   170.16374     4.39749
     2.40000   170.72765   170.81912     4.40003   173.26144   170.73655     4.39720
     2.50000   170.39194   171.09073     4.39986   172.92272   171.25581     4.39690
     2.60000   170.05566   171.34419     4.39968   172.58283   171.72869     4.39659
     2.70000   169.71881   171.58124     4.39949   172.24180   172.16114     4.39627
     2.80000   169.38137   171.80342     4.39930   171.89967   172.55815     4.39594
     2.90000   169.04335   172.01209     4.39909   171.55646   172.92393     4.39560
     3.00000   168.65636   172.23557     4.39885   171.16297   173.30814     4.39520
     3.10000   168.31707   172.41911     4.39863   170.81750   173.61837     4.39484
     3.20000   167.97719   172.59246     4.39839   170.47098   173.90696     4.39447
     3.30000   167.58804   172.77915     4.39812   170.07374   174.21299     4.39403
     3.40000   167.24684   172.93331     4.39787   169.72498   174.46233     4.39364
     3.50000   166.90502   173.07957     4.39762   169.37517   174.69609     4.39324
     3.60000   166.51361   173.23785     4.39732   168.97414   174.94589     4.39278
     3.70000   166.17041   173.36912     4.39705   168.62205   175.15092     4.39236
     3.80000   165.77740   173.51158     4.39673   168.21839   175.37102     4.39187
     3.90000   165.38352   173.64655     4.39640   167.81330   175.57745     4.39137
     4.00000   165.03810   173.75895     4.39610   167.45761   175.74798     4.39092
     4.10000   164.64252   173.88138     4.39576   167.04979   175.93214     4.39040
     4.20000   164.24602   173.99782     4.39541   166.64047   176.10591     4.38987
     4.30000   163.84857   174.10871     4.39504   166.22965   176.27021     4.38933
     4.40000   163.45016   174.21443     4.39467   165.81728   176.42582     4.38877
     4.50000   163.05077   174.31533     4.39429   165.40335   176.57345     4.38821
     4.60000   162.60032   174.42349     4.39386   164.93584   176.73072     4.38757
     4.70000   162.19880   174.51519     4.39346   164.51850   176.86344     4.38698
     4.80000   161.79625   174.60298     4.39306   164.09951   176.98996     4.38639
     4.90000   161.34218   174.69740     4.39260   163.62622   177.12540     4.38571
     5.00000   160.88676   174.78750     4.39213   163.15079   177.25417     4.38502
     5.10000   160.48076   174.86421     4.39170   162.72627   177.36352     4.38440
     5.20000   160.02275   174.94694     4.39122   162.24667   177.48109     4.38369
     5.30000   159.56334   175.02613     4.39073   161.76481   177.59336     4.38297
     5.40000   159.05126   175.11024     4.39017   161.22679   177.71233     4.38216
     5.50000   158.58882   175.18266     4.38967   160.74006   177.81468     4.38143
     5.60000   158.07334   175.25974     4.38910   160.19655   177.92345     4.38060
     5.70000   157.55603   175.33347     4.38852   159.65008   178.02745     4.37976
     5.80000   157.03688   175.40408     4.38794   159.10061   178.12702     4.37892
     5.90000   156.51588   175.47175     4.38735   158.54810   178.22249     4.37806
     6.00000   155.94064   175.54301     4.38670   157.93687   178.32308     4.37712
     6.10000   155.36312   175.61118     4.38604   157.32187   178.41941     4.37617
     6.20000   154.78329   175.67644     4.38538   156.70307   178.51180     4.37521
     6.30000   154.14815   175.74455     4.38465   156.02372   178.60839     4.37416
     6.40000   153.51023   175.80965     4.38392   155.33976   178.70098     4.37311
     6.50000   152.86952   175.87195     4.38319   154.65116   178.78986     4.37206
     6.60000   152.11860   175.94134     4.38234   153.84206   178.88915     4.37083
     6.70000   151.36388   176.00743     4.38149   153.02661   178.98416     4.36961
     6.80000   150.60537   176.07047     4.38064   152.20479   179.07523     4.36840
     6.90000   149.73397   176.13907     4.37968   151.25794   179.17481     4.36702
     7.00000   148.80280   176.20825     4.37866   150.24296   179.27584     4.36559
     7.10000    91.49479   178.09571     4.36003    88.50521   181.90429     4.36003
     7.20000    91.49466   178.09585     4.35999    88.50534   181.90415     4.35999
     7.30000    91.49454   178.09600     4.35994    88.50546   181.90400     4.35994
     7.40000    91.49441   178.09614     4.35990    88.50559   181.90386     4.35990
     7.50000    91.49428   178.09629     4.35986    88.50572   181.90371     4.35986
     7.60000    91.49416   178.09643     4.35981    88.50584   181.90357     4.35981
     7.70000    91.49403   178.09658     4.35977    88.50597   181.90342     4.35977
     7.80000    91.49390   178.09673     4.35973    88.50610   181.90327     4.35973
     7.90000    91.49378   178.09687     4.35968    88.50622   181.90313     4.35968
     8.00000    91.49365   178.09702     4.35964    88.50635   181.90298     4.35964
     8.10000    91.49352   178.09716     4.35960    88.50648   181.90284     4.35960
     8.20000    91.49340   178.09731     4.35955    88.50660   181.90269     4.35955
     8.30000    91.49327   178.09745     4.35951    88.50673   181.90255     4.35951
     8.40000    91.49314   178.09760     4.35946    88.50686   181.90240     4.35946
     8.50000    91.49302   178.09774     4.35942    88.50698   181.90226     4.35942
     8.60000    91.49289   178.09789     4.35938    88.50711   181.90211     4.35938
     8.70000    91.49276   178.09803     4.35933    88.50724   181.90197     4.35933
     8.80000    91.49264   178.09818     4.35929    88.50736   181.90182     4.35929
     8.90000    91.49251   178.09832     4.35925    88.50749   181.90168     4.35925
     9.00000    91.49239   178.09846     4.35920    88.50761   181.90154     4.35920
     9.10000    91.49226   178.09861     4.35916    88.50774   181.90139     4.35916
     9.20000    91.49214   178.09875     4.35912    88.50786   181.90125     4.35912
     9.30000    91.49201   178.09890     4.35907    88.50799   181.90110     4.35907
     9.40000    91.49188   178.09904     4.35903    88.50812   181.90096     4.35903
     9.50000    91.49176   178.09919     4.35899    88.50824   181.90081     4.35899
     9.60000    91.49163   178.09933     4.35894    88.50837   181.90067     4.35894
     9.70000    91.49151   178.09948     4.35890    88.50849   181.90052     4.35890
     9.80000    91.49138   178.09962     4.35885    88.50862   181.90038     4.35885
     9.90000    91.49126   178.09976     4.35881    88.50874   181.90024     4.35881
    10.00000    91.49113   178.09991     4.35877    88.50887   181.90009     4.35877
    10.10000    91.49101   178.10005     4.35872    88.50899   181.89995     4.35872
    10.20000    91.49088   178.10020     4.35868    88.50912   181.89980     4.35868
    10.30000    91.49075   178.10034     4.35864    88.50925   181.89966     4.35864
    10.40000    91.49063   178.10048     4.35859    88.50937   181.89952     4.35859
    10.50000    91.49050   178.10063     4.35855    88.50950   181.89937     4.35855
    10.60000    91.49038   178.10077     4.35851    88.50962   181.89923     4.35851
    10.70000    91.49025   178.10091     4.35846    88.50975   181.89909     4.35846
    10.80000    91.49013   178.10106     4.35842    88.50987   181.89894     4.35842
    10.90000    91.49000   178.10120     4.35837    88.51000   181.89880     4.35837
    11.00000    91.48988   178.10134     4.35833    88.51012   181.89866     4.35833
    11.10000    91.48976   178.10149     4.35829    88.51024   181.89851     4.35829
    11.20000    91.48963   178.10163     4.35824    88.51037   181.89837     4.35824
    11.30000    91.48951   178.10177     4.35820    88.51049   181.89823     4.35820
    11.40000    91.48938   178.10192     4.35816    88.51062   181.89808     4.35816
    11.50000    91.48926   178.10206     4.35811    88.51074   181.89794     4.35811
    11.60000    91.48913   178.10220     4.35807    88.51087   181.89780     4.35807
    11.70000    91.48901   178.10234     4.35803    88.51099   181.89766     4.35803
    11.80000    91.48888   178.10249     4.35798    88.51112   181.89751     4.35798
    11.90000    91.48876   178.10263     4.35794    88.51124   181.89737     4.35794
    12.00000    91.48864   178.10277     4.35789    88.51136   181.89723     4.35789
    12.10000    91.48851   178.10292     4.35785    88.51149   181.89708     4.35785
    12.20000    91.48839   178.10306     4.35781    88.51161   181.89694     4.35781
    12.30000    91.48826   178.10320     4.35776    88.51174   181.89680     4.35776
    12.40000    91.48814   178.10334     4.35772    88.51186   181.89666     4.35772
    12.50000    91.48802   178.10348     4.35768    88.51198   181.89652     4.35768
    12.60000    91.48789   178.10363     4.35763    88.51211   181.89637     4.35763
    12.70000    91.48777   178.10377     4.35759    88.51223   181.89623     4.35759
    12.80000    91.48764   178.10391     4.35754    88.51236   181.89609     4.35754
    12.90000    91.48752   178.10405     4.35750    88.51248   181.89595     4.35750
    13.00000    91.48740   178.10420     4.35746    88.51260   181.89580     4.35746
    13.10000    91.48727   178.10434     4.35741    88.51273   181.89566     4.35741
    13.20000    91.48715   178.10448     4.35737    88.51285   181.89552     4.35737
    13.30000    91.48703   178.10462     4.35732    88.51297   181.89538     4.35732
    13.40000    91.48690   178.10476     4.35728    88.51310   181.89524     4.35728
    13.50000    91.48678   178.10490     4.35724    88.51322   181.89510     4.35724
    13.60000    91.48666   178.10505     4.35719    88.51334   181.89495     4.35719
    13.70000    91.48653   178.10519     4.35715    88.51347   181.89481     4.35715
    13.80000    91.48641   178.10533     4.35711    88.51359   181.89467     4.35711
    13.90000    91.48629   178.10547     4.35706    88.51371   181.89453     4.35706
    14.00000    91.48616   178.10561     4.35702    88.51384   181.89439     4.35702
    14.10000    91.48604   178.10575     4.35697    88.51396   181.89425     4.35697
    14.20000    91.48592   178.10589     4.35693    88.51408   181.89411     4.35693
    14.30000    91.48580   178.10603     4.35689    88.51420   181.89397     4.35689
    14.40000    91.48567   178.10618     4.35684    88.51433   181.89382     4.35684
    14.50000    91.48555   178.10632     4.35680    88.51445   181.89368     4.35680
    14.60000    91.48543   178.10646     4.35675    88.51457   181.89354     4.35675
    14.70000    91.48531   178.10660     4.35671    88.51469   181.89340     4.35671
    14.80000    91.48518   178.10674     4.35667    88.51482   181.89326     4.35667
    14.90000    91.48506   178.10688     4.35662    88.51494   181.89312     4.35662
    15.00000    91.48494   178.10702     4.35658    88.51506   181.89298     4.35658
    15.10000    91.48482   178.10716     4.35654    88.51518   181.89284     4.35654
    15.20000    91.48469   178.10730     4.35649    88.51531   181.89270     4.35649
    15.30000    91.48457   178.10744     4.35645    88.51543   181.89256     4.35645
    15.40000    91.48445   178.10758     4.35640    88.51555   181.89242     4.35640
    15.50000    91.48433   178.10772     4.35636    88.51567   181.89228     4.35636
    15.60000    91.48420   178.10786     4.35632    88.51580   181.89214     4.35632
    15.70000    91.48408   178.10800     4.35627    88.51592   181.89200     4.35627
    15.80000    91.48396   178.10814     4.35623    88.51604   181.89186     4.35623
    15.90000    91.48384   178.10828     4.35618    88.51616   181.89172     4.35618
    16.00000    91.48372   178.10842     4.35614    88.51628   181.89158     4.35614
    16.10000    91.48360   178.10856     4.35610    88.51640   181.89144     4.35610
    16.20000    91.48347   178.10870     4.35605    88.51653   181.89130     4.35605
    16.30000    91.48335   178.10884     4.35601    88.51665   181.89116     4.35601
    16.40000    91.48323   178.10898     4.35596    88.51677   181.89102     4.35596
    16.50000    91.48311   178.10912     4.35592    88.51689   181.89088     4.35592
    16.60000    91.48299   178.10926     4.35588    88.51701   181.89074     4.35588
    16.70000    91.48287   178.10940     4.35583    88.51713   181.89060     4.35583
    16.80000    91.48274   178.10954     4.35579    88.51726   181.89046     4.35579
    16.90000    91.48262   178.10968     4.35574    88.51738   181.89032     4.35574
    17.00000    91.48250   178.10982     4.35570    88.51750   181.89018     4.35570
    17.10000    91.48238   178.10996     4.35566    88.51762   181.89004     4.35566
    17.20000    91.48226   178.11010     4.35561    88.51774   181.88990     4.35561
    17.30000    91.48214   178.11024     4.35557    88.51786   181.88976     4.35557
    17.40000    91.48202   178.11038     4.35552    88.51798   181.88962     4.35552
    17.50000    91.48190   178.11052     4.35548    88.51810   181.88948     4.35548
    17.60000    91.48178   178.11065     4.35544    88.51822   181.88935     4.35544
    17.70000    91.48166   178.11079     4.35539    88.51834   181.88921     4.35539
    17.80000    91.48153   178.11093     4.35535    88.51847   181.88907     4.35535
    17.90000    91.48141   178.11107     4.35530    88.51859   181.88893     4.35530
    18.00000    91.48129   178.11121     4.35526    88.51871   181.88879     4.35526
    18.10000    91.48117   178.11135     4.35522    88.51883   181.88865     4.35522
    18.20000    91.48105   178.11149     4.35517    88.51895   181.88851     4.35517
    18.30000    91.48093   178.11163     4.35513    88.51907   181.88837     4.35513
    18.40000    91.48081   178.11176     4.35508    88.51919   181.88824     4.35508
    18.50000    91.48069   178.11190     4.35504    88.51931   181.88810     4.35504
    18.60000    91.48057   178.11204     4.35500    88.51943   181.88796     4.35500
    18.70000    91.48045   178.11218     4.35495    88.51955   181.88782     4.35495
    18.80000    91.48033   178.11232     4.35491    88.51967   181.88768     4.35491
    18.90000    91.48021   178.11246     4.35486    88.51979   181.88754     4.35486
    19.00000    91.48009   178.11259     4.35482    88.51991   181.88741     4.35482
    19.10000    91.47997   178.11273     4.35477    88.52003   181.88727     4.35477
    19.20000    91.47985   178.11287     4.35473    88.52015   181.88713     4.35473
    19.30000    91.47973   178.11301     4.35469    88.52027   181.88699     4.35469
    19.40000    91.47961   178.11314     4.35464    88.52039   181.88686     4.35464
    19.50000    91.47949   178.11328     4.35460    88.52051   181.88672     4.35460
    19.60000    91.47937   178.11342     4.35455    88.52063   181.88658     4.35455
    19.70000    91.47925   178.11356     4.35451    88.52075   181.88644     4.35451
    19.80000    91.47913   178.11370     4.35447    88.52087   181.88630     4.35447
    19.90000    91.47901   178.11383     4.35442    88.52099   181.88617     4.35442
    20.00000    91.47889   178.11397     4.35438    88.52111   181.88603     4.35438
    20.10000    91.47877   178.11411     4.35433    88.52123   181.88589     4.35433
    20.20000    91.47865   178.11424     4.35429    88.52135   181.88576     4.35429
    20.30000    91.47853   178.11438     4.35424    88.52147   181.88562     4.35424
    20.40000    91.47841   178.11452     4.35420    88.52159   181.88548     4.35420
    20.50000    91.47830   178.11466     4.35416    88.52170   181.88534     4.35416
    20.60000    91.47818   178.11479     4.35411    88.52182   181.88521     4.35411
    20.70000    91.47806   178.11493     4.35407    88.52194   181.88507     4.35407
    20.80000    91.47794   178.11507     4.35402    88.52206   181.88493     4.35402
    20.90000    91.47782   178.11520     4.35398    88.52218   181.88480     4.35398
    21.00000    91.47770   178.11534     4.35393    88.52230   181.88466     4.35393
    21.10000    91.47758   178.11548     4.35389    88.52242   181.88452     4.35389
    21.20000    91.47746   178.11561     4.35385    88.52254   181.88439     4.35385
    21.30000    91.47734   178.11575     4.35380    88.52266   181.88425     4.35380
    21.40000    91.47723   178.11589     4.35376    88.52277   181.88411     4.35376
    21.50000    91.47711   178.11602     4.35371    88.52289   181.88398     4.35371
    21.60000    91.47699   178.11616     4.35367    88.52301   181.88384     4.35367
    21.70000    91.47687   178.11630     4.35363    88.52313   181.88370     4.35363
    21.80000    91.47675   178.11643     4.35358    88.52325   181.88357     4.35358
    21.90000    91.47663   178.11657     4.35354    88.52337   181.88343     4.35354
    22.00000    91.47651   178.11670     4.35349    88.52349   181.88330     4.35349
    22.10000    91.47640   178.11684     4.35345    88.52360   181.88316     4.35345
    22.20000    91.47628   178.11698     4.35340    88.52372   181.88302     4.35340
    22.30000    91.47616   178.11711     4.35336    88.52384   181.88289     4.35336
    22.40000    91.47604   178.11725     4.35332    88.52396   181.88275     4.35332
    22.50000    91.47592   178.11738     4.35327    88.52408   181.88262     4.35327
    22.60000    91.47581   178.11752     4.35323    88.52419   181.88248     4.35323
    22.70000    91.47569   178.11766     4.35318    88.52431   181.88234     4.35318
    22.80000    91.47557   178.11779     4.35314    88.52443   181.88221     4.35314
    22.90000    91.47545   178.11793     4.35309    88.52455   181.88207     4.35309
    23.00000    91.47533   178.11806     4.35305    88.52467   181.88194     4.35305
    23.10000    91.47522   178.11820     4.35300    88.52478   181.88180     4.35300
    23.20000    91.47510   178.11833     4.35296    88.52490   181.88167     4.35296
    23.30000    91.47498   178.11847     4.35292    88.52502   181.88153     4.35292
