 # applied field (T), theta (degree), phi (degree), abs [muB/unitcell], abs [T]
       0.00000000       0.00000000       0.00000000      46.45194662       1.55287933
       0.10000000       0.39871188      45.00000000      46.45194960       1.55287942
       0.20000000       0.79742500      45.00000000      46.45195856       1.55287972
       0.30000000       1.19614059      45.00000000      46.45197348       1.55288022
       0.40000000       1.59485991      45.00000000      46.45199439       1.55288092
       0.50000000       1.99358418      45.00000000      46.45202127       1.55288182
       0.60000000       2.33545220      45.00000000      46.45204987       1.55288278
       0.70000000       2.73418894      45.00000000      46.45208801       1.55288405
       0.80000000       3.13293417      45.00000000      46.45213217       1.55288553
       0.90000000       3.53168911      45.00000000      46.45218234       1.55288721
       1.00000000       3.93045500      45.00000000      46.45223854       1.55288908
       1.10000000       4.32923305      45.00000000      46.45230078       1.55289116
       1.20000000       4.72802450      45.00000000      46.45236909       1.55289345
       1.30000000       5.12683057      45.00000000      46.45244347       1.55289593
       1.40000000       5.52565246      45.00000000      46.45252394       1.55289862
       1.50000000       5.92449139      45.00000000      46.45261052       1.55290152
       1.60000000       6.38023047      45.00000000      46.45271486       1.55290501
       1.70000000       6.77911000      45.00000000      46.45281447       1.55290834
       1.80000000       7.17801035      45.00000000      46.45292025       1.55291187
       1.90000000       7.57693271      45.00000000      46.45303222       1.55291562
       2.00000000       7.97587825      45.00000000      46.45315040       1.55291957
       2.10000000       8.37484816      45.00000000      46.45327482       1.55292373
       2.20000000       8.83074610      45.00000000      46.45342177       1.55292864
       2.30000000       9.22977220      45.00000000      46.45355949       1.55293324
       2.40000000       9.62882632      45.00000000      46.45370349       1.55293806
       2.50000000      10.08482509      45.00000000      46.45387253       1.55294371
       2.60000000      10.48394314      45.00000000      46.45402996       1.55294897
       2.70000000      10.94001805      45.00000000      46.45421413       1.55295513
       2.80000000      11.39613602      45.00000000      46.45440635       1.55296155
       2.90000000      11.79536212      45.00000000      46.45458446       1.55296751
       3.00000000      12.25156517      45.00000000      46.45479194       1.55297444
       3.10000000      12.70781595      45.00000000      46.45500752       1.55298165
       3.20000000      13.10716188      45.00000000      46.45520643       1.55298830
       3.30000000      13.56350636      45.00000000      46.45543735       1.55299602
       3.40000000      14.01990309      45.00000000      46.45567638       1.55300401
       3.50000000      14.53332791      45.00000000      46.45595104       1.55301319
       3.60000000      14.98984075      45.00000000      46.45620723       1.55302176
       3.70000000      15.44641049      45.00000000      46.45647152       1.55303059
       3.80000000      15.90303857      45.00000000      46.45674389       1.55303970
       3.90000000      16.41673116      45.00000000      46.45705555       1.55305012
       4.00000000      16.93050150      45.00000000      46.45737714       1.55306087
       4.10000000      17.38732883      45.00000000      46.45767537       1.55307084
       4.20000000      17.90125107      45.00000000      46.45801563       1.55308221
       4.30000000      18.41525638      45.00000000      46.45836562       1.55309391
       4.40000000      18.98639748      45.00000000      46.45876141       1.55310714
       4.50000000      19.50058382      45.00000000      46.45913149       1.55311951
       4.60000000      20.07193032      45.00000000      46.45954913       1.55313348
       4.70000000      20.58630470      45.00000000      46.45993872       1.55314650
       4.80000000      21.21495885      45.00000000      46.46041770       1.55316251
       4.90000000      21.78664463      45.00000000      46.46086815       1.55317757
       5.00000000      22.41556672      45.00000000      46.46137126       1.55319439
       5.10000000      23.04463231      45.00000000      46.46188638       1.55321161
       5.20000000      23.67384326      45.00000000      46.46241307       1.55322922
       5.30000000      24.36036247      45.00000000      46.46299606       1.55324871
       5.40000000      25.04705881      45.00000000      46.46359136       1.55326861
       5.50000000      25.79112645      45.00000000      46.46424535       1.55329047
       5.60000000      26.53540559      45.00000000      46.46491172       1.55331275
       5.70000000      90.00000000      45.00000000      46.48003254       1.55381823
       5.80000000      90.00000000      45.00000000      46.48007566       1.55381967
       5.90000000      90.00000000      45.00000000      46.48011879       1.55382112
       6.00000000      90.00000000      45.00000000      46.48016193       1.55382256
       6.10000000      90.00000000      45.00000000      46.48020507       1.55382400
       6.20000000      90.00000000      45.00000000      46.48024821       1.55382544
       6.30000000      90.00000000      45.00000000      46.48029136       1.55382688
       6.40000000      90.00000000      45.00000000      46.48033451       1.55382833
       6.50000000      90.00000000      45.00000000      46.48037768       1.55382977
       6.60000000      90.00000000      45.00000000      46.48042084       1.55383121
       6.70000000      90.00000000      45.00000000      46.48046401       1.55383266
       6.80000000      90.00000000      45.00000000      46.48050719       1.55383410
       6.90000000      90.00000000      45.00000000      46.48055037       1.55383554
       7.00000000      90.00000000      45.00000000      46.48059356       1.55383699
       7.10000000      90.00000000      45.00000000      46.48063675       1.55383843
       7.20000000      90.00000000      45.00000000      46.48067995       1.55383987
       7.30000000      90.00000000      45.00000000      46.48072315       1.55384132
       7.40000000      90.00000000      45.00000000      46.48076636       1.55384276
       7.50000000      90.00000000      45.00000000      46.48080957       1.55384421
       7.60000000      90.00000000      45.00000000      46.48085279       1.55384565
       7.70000000      90.00000000      45.00000000      46.48089602       1.55384710
       7.80000000      90.00000000      45.00000000      46.48093925       1.55384854
       7.90000000      90.00000000      45.00000000      46.48098248       1.55384999
       8.00000000      90.00000000      45.00000000      46.48102572       1.55385143
       8.10000000      90.00000000      45.00000000      46.48106897       1.55385288
       8.20000000      90.00000000      45.00000000      46.48111222       1.55385433
       8.30000000      90.00000000      45.00000000      46.48115548       1.55385577
       8.40000000      90.00000000      45.00000000      46.48119874       1.55385722
       8.50000000      90.00000000      45.00000000      46.48124201       1.55385866
       8.60000000      90.00000000      45.00000000      46.48128528       1.55386011
       8.70000000      90.00000000      45.00000000      46.48132856       1.55386156
       8.80000000      90.00000000      45.00000000      46.48137184       1.55386300
       8.90000000      90.00000000      45.00000000      46.48141513       1.55386445
       9.00000000      90.00000000      45.00000000      46.48145842       1.55386590
       9.10000000      90.00000000      45.00000000      46.48150172       1.55386735
       9.20000000      90.00000000      45.00000000      46.48154503       1.55386879
       9.30000000      90.00000000      45.00000000      46.48158834       1.55387024
       9.40000000      90.00000000      45.00000000      46.48163165       1.55387169
       9.50000000      90.00000000      45.00000000      46.48167497       1.55387314
       9.60000000      90.00000000      45.00000000      46.48171830       1.55387459
       9.70000000      90.00000000      45.00000000      46.48176163       1.55387603
       9.80000000      90.00000000      45.00000000      46.48180497       1.55387748
       9.90000000      90.00000000      45.00000000      46.48184831       1.55387893
      10.00000000      90.00000000      45.00000000      46.48189166       1.55388038
      10.10000000      90.00000000      45.00000000      46.48193501       1.55388183
      10.20000000      90.00000000      45.00000000      46.48197837       1.55388328
      10.30000000      90.00000000      45.00000000      46.48202173       1.55388473
      10.40000000      90.00000000      45.00000000      46.48206510       1.55388618
      10.50000000      90.00000000      45.00000000      46.48210847       1.55388763
      10.60000000      90.00000000      45.00000000      46.48215185       1.55388908
      10.70000000      90.00000000      45.00000000      46.48219524       1.55389053
      10.80000000      90.00000000      45.00000000      46.48223863       1.55389198
      10.90000000      90.00000000      45.00000000      46.48228203       1.55389343
      11.00000000      90.00000000      45.00000000      46.48232543       1.55389488
      11.10000000      90.00000000      45.00000000      46.48236883       1.55389633
      11.20000000      90.00000000      45.00000000      46.48241224       1.55389778
      11.30000000      90.00000000      45.00000000      46.48245566       1.55389924
      11.40000000      90.00000000      45.00000000      46.48249908       1.55390069
      11.50000000      90.00000000      45.00000000      46.48254251       1.55390214
      11.60000000      90.00000000      45.00000000      46.48258595       1.55390359
      11.70000000      90.00000000      45.00000000      46.48262938       1.55390504
      11.80000000      90.00000000      45.00000000      46.48267283       1.55390650
      11.90000000      90.00000000      45.00000000      46.48271628       1.55390795
      12.00000000      90.00000000      45.00000000      46.48275973       1.55390940
      12.10000000      90.00000000      45.00000000      46.48280319       1.55391085
      12.20000000      90.00000000      45.00000000      46.48284666       1.55391231
      12.30000000      90.00000000      45.00000000      46.48289013       1.55391376
      12.40000000      90.00000000      45.00000000      46.48293361       1.55391521
      12.50000000      90.00000000      45.00000000      46.48297709       1.55391667
      12.60000000      90.00000000      45.00000000      46.48302058       1.55391812
      12.70000000      90.00000000      45.00000000      46.48306407       1.55391958
      12.80000000      90.00000000      45.00000000      46.48310757       1.55392103
      12.90000000      90.00000000      45.00000000      46.48315107       1.55392248
      13.00000000      90.00000000      45.00000000      46.48319458       1.55392394
      13.10000000      90.00000000      45.00000000      46.48323809       1.55392539
      13.20000000      90.00000000      45.00000000      46.48328161       1.55392685
      13.30000000      90.00000000      45.00000000      46.48332514       1.55392830
      13.40000000      90.00000000      45.00000000      46.48336867       1.55392976
      13.50000000      90.00000000      45.00000000      46.48341220       1.55393121
      13.60000000      90.00000000      45.00000000      46.48345574       1.55393267
      13.70000000      90.00000000      45.00000000      46.48349929       1.55393412
      13.80000000      90.00000000      45.00000000      46.48354284       1.55393558
      13.90000000      90.00000000      45.00000000      46.48358640       1.55393704
      14.00000000      90.00000000      45.00000000      46.48362996       1.55393849
      14.10000000      90.00000000      45.00000000      46.48367353       1.55393995
      14.20000000      90.00000000      45.00000000      46.48371710       1.55394141
      14.30000000      90.00000000      45.00000000      46.48376068       1.55394286
      14.40000000      90.00000000      45.00000000      46.48380427       1.55394432
      14.50000000      90.00000000      45.00000000      46.48384786       1.55394578
      14.60000000      90.00000000      45.00000000      46.48389145       1.55394723
      14.70000000      90.00000000      45.00000000      46.48393505       1.55394869
      14.80000000      90.00000000      45.00000000      46.48397866       1.55395015
      14.90000000      90.00000000      45.00000000      46.48402227       1.55395161
      15.00000000      90.00000000      45.00000000      46.48406589       1.55395307
      15.10000000      90.00000000      45.00000000      46.48410951       1.55395452
      15.20000000      90.00000000      45.00000000      46.48415314       1.55395598
      15.30000000      90.00000000      45.00000000      46.48419677       1.55395744
      15.40000000      90.00000000      45.00000000      46.48424041       1.55395890
      15.50000000      90.00000000      45.00000000      46.48428405       1.55396036
      15.60000000      90.00000000      45.00000000      46.48432770       1.55396182
      15.70000000      90.00000000      45.00000000      46.48437135       1.55396328
      15.80000000      90.00000000      45.00000000      46.48441501       1.55396474
      15.90000000      90.00000000      45.00000000      46.48445868       1.55396620
      16.00000000      90.00000000      45.00000000      46.48450235       1.55396766
      16.10000000      90.00000000      45.00000000      46.48454603       1.55396912
      16.20000000      90.00000000      45.00000000      46.48458971       1.55397058
      16.30000000      90.00000000      45.00000000      46.48463340       1.55397204
      16.40000000      90.00000000      45.00000000      46.48467709       1.55397350
      16.50000000      90.00000000      45.00000000      46.48472079       1.55397496
      16.60000000      90.00000000      45.00000000      46.48476449       1.55397642
      16.70000000      90.00000000      45.00000000      46.48480820       1.55397788
      16.80000000      90.00000000      45.00000000      46.48485191       1.55397934
      16.90000000      90.00000000      45.00000000      46.48489563       1.55398080
      17.00000000      90.00000000      45.00000000      46.48493936       1.55398227
      17.10000000      90.00000000      45.00000000      46.48498309       1.55398373
      17.20000000      90.00000000      45.00000000      46.48502682       1.55398519
      17.30000000      90.00000000      45.00000000      46.48507056       1.55398665
      17.40000000      90.00000000      45.00000000      46.48511431       1.55398811
      17.50000000      90.00000000      45.00000000      46.48515806       1.55398958
      17.60000000      90.00000000      45.00000000      46.48520182       1.55399104
      17.70000000      90.00000000      45.00000000      46.48524558       1.55399250
      17.80000000      90.00000000      45.00000000      46.48528935       1.55399397
      17.90000000      90.00000000      45.00000000      46.48533313       1.55399543
      18.00000000      90.00000000      45.00000000      46.48537691       1.55399689
      18.10000000      90.00000000      45.00000000      46.48542069       1.55399836
      18.20000000      90.00000000      45.00000000      46.48546448       1.55399982
      18.30000000      90.00000000      45.00000000      46.48550828       1.55400128
      18.40000000      90.00000000      45.00000000      46.48555208       1.55400275
      18.50000000      90.00000000      45.00000000      46.48559588       1.55400421
      18.60000000      90.00000000      45.00000000      46.48563970       1.55400568
      18.70000000      90.00000000      45.00000000      46.48568351       1.55400714
      18.80000000      90.00000000      45.00000000      46.48572734       1.55400861
      18.90000000      90.00000000      45.00000000      46.48577116       1.55401007
      19.00000000      90.00000000      45.00000000      46.48581500       1.55401154
      19.10000000      90.00000000      45.00000000      46.48585884       1.55401300
      19.20000000      90.00000000      45.00000000      46.48590268       1.55401447
      19.30000000      90.00000000      45.00000000      46.48594653       1.55401594
      19.40000000      90.00000000      45.00000000      46.48599039       1.55401740
      19.50000000      90.00000000      45.00000000      46.48603425       1.55401887
      19.60000000      90.00000000      45.00000000      46.48607811       1.55402033
      19.70000000      90.00000000      45.00000000      46.48612199       1.55402180
      19.80000000      90.00000000      45.00000000      46.48616586       1.55402327
      19.90000000      90.00000000      45.00000000      46.48620975       1.55402473
      20.00000000      90.00000000      45.00000000      46.48625363       1.55402620
      20.10000000      90.00000000      45.00000000      46.48629753       1.55402767
      20.20000000      90.00000000      45.00000000      46.48634143       1.55402914
      20.30000000      90.00000000      45.00000000      46.48638533       1.55403060
      20.40000000      90.00000000      45.00000000      46.48642924       1.55403207
      20.50000000      90.00000000      45.00000000      46.48647316       1.55403354
      20.60000000      90.00000000      45.00000000      46.48651708       1.55403501
      20.70000000      90.00000000      45.00000000      46.48656100       1.55403648
      20.80000000      90.00000000      45.00000000      46.48660494       1.55403795
      20.90000000      90.00000000      45.00000000      46.48664887       1.55403941
      21.00000000      90.00000000      45.00000000      46.48669282       1.55404088
      21.10000000      90.00000000      45.00000000      46.48673676       1.55404235
      21.20000000      90.00000000      45.00000000      46.48678072       1.55404382
      21.30000000      90.00000000      45.00000000      46.48682468       1.55404529
      21.40000000      90.00000000      45.00000000      46.48686864       1.55404676
      21.50000000      90.00000000      45.00000000      46.48691261       1.55404823
      21.60000000      90.00000000      45.00000000      46.48695659       1.55404970
      21.70000000      90.00000000      45.00000000      46.48700057       1.55405117
      21.80000000      90.00000000      45.00000000      46.48704455       1.55405264
      21.90000000      90.00000000      45.00000000      46.48708855       1.55405411
      22.00000000      90.00000000      45.00000000      46.48713254       1.55405558
      22.10000000      90.00000000      45.00000000      46.48717655       1.55405705
      22.20000000      90.00000000      45.00000000      46.48722056       1.55405853
      22.30000000      90.00000000      45.00000000      46.48726457       1.55406000
      22.40000000      90.00000000      45.00000000      46.48730859       1.55406147
      22.50000000      90.00000000      45.00000000      46.48735261       1.55406294
      22.60000000      90.00000000      45.00000000      46.48739664       1.55406441
      22.70000000      90.00000000      45.00000000      46.48744068       1.55406588
      22.80000000      90.00000000      45.00000000      46.48748472       1.55406736
      22.90000000      90.00000000      45.00000000      46.48752877       1.55406883
      23.00000000      90.00000000      45.00000000      46.48757282       1.55407030
