 # applied field (T), theta (degree), phi (degree), abs for RE 3-4
     0.00000   179.68529   315.00000     3.55240   179.68529   225.00000     3.55240
     0.10000   179.16984   194.13111     3.55253   178.72653   190.98704     3.55257
     0.20000   178.15780   185.69498     3.55256   177.70724   186.58471     3.55264
     0.30000   177.13357   183.25806     3.55249   176.68272   184.89671     3.55261
     0.40000   176.10616   182.10425     3.55230   175.65651   184.00617     3.55248
     0.50000   175.02273   181.40389     3.55199   174.57526   183.43322     3.55225
     0.60000   173.99208   180.97189     3.55158   173.54736   183.06717     3.55194
     0.70000   172.96012   180.66580     3.55105   172.51874   182.80197     3.55153
     0.80000   171.87239   180.42701     3.55036   171.43514   182.59186     3.55100
     0.90000   170.78316   180.24401     3.54954   170.35061   182.42918     3.55038
     1.00000   169.74696   180.10567     3.54864   169.31940   182.30546     3.54970
     1.10000   168.65458   179.98686     3.54756   168.23279   182.19883     3.54889
     1.20000   167.50569   179.88397     3.54627   167.09050   182.10637     3.54795
     1.30000   166.40968   179.80167     3.54490   166.00127   182.03254     3.54696
     1.40000   165.25680   179.72797     3.54331   164.85599   181.96660     3.54583
     1.50000   164.10175   179.66450     3.54157   163.70902   181.91009     3.54462
     1.60000   162.94444   179.60919     3.53968   162.56024   181.86116     3.54332
     1.70000   161.72948   179.55832     3.53753   161.35468   181.81651     3.54187
     1.80000   160.51187   179.51335     3.53522   160.14692   181.77741     3.54034
     1.90000   159.29151   179.47324     3.53275   158.93685   181.74292     3.53873
     2.00000   158.01263   179.43564     3.53000   157.66919   181.71096     3.53697
     2.10000   156.73057   179.40174     3.52709   156.39882   181.68254     3.53514
     2.20000   155.38927   179.36969     3.52388   155.07020   181.65606     3.53317
     2.30000   153.98818   179.33936     3.52036   153.68288   181.63138     3.53104
     2.40000   152.58304   179.31165     3.51667   152.29209   181.60925     3.52885
     2.50000   151.11729   179.28522     3.51267   150.84191   181.58851     3.52652
     2.60000   149.53363   179.25906     3.50820   149.27581   181.56838     3.52395
     2.70000   147.94459   179.23491     3.50358   147.70520   181.55022     3.52135
     2.80000   146.29303   179.21172     3.49866   146.07370   181.53315     3.51862
     2.90000   144.52098   179.18867     3.49328   144.32429   181.51657     3.51567
     3.00000   142.68461   179.16644     3.48766   142.51266   181.50099     3.51262
     3.10000   140.72550   179.14430     3.48166   140.58145   181.48585     3.50939
     3.20000   138.58428   179.12164     3.47517   138.47255   181.47075     3.50590
     3.30000   136.31712   179.09907     3.46848   136.24170   181.45611     3.50227
     3.40000   133.80573   179.07545     3.46139   133.77292   181.44117     3.49835
     3.50000   131.04752   179.05085     3.45416   131.06411   181.42597     3.49420
     3.60000   127.92217   179.02431     3.44685   127.99732   181.40987     3.48971
     3.70000   124.36745   178.99550     3.43992   124.51116   181.39255     3.48491
     3.80000   120.02380   178.96196     3.43373   120.25122   181.37222     3.47952
     3.90000   114.35066   178.92071     3.42968   114.68116   181.34610     3.47327
     4.00000   105.85341   178.86461     3.43190   106.30962   181.30610     3.46557
     4.10000    89.72314   178.77828     3.45637    90.27686   181.22172     3.45637
     4.20000    89.72312   178.77823     3.45636    90.27688   181.22177     3.45636
     4.30000    89.72311   178.77818     3.45635    90.27689   181.22182     3.45635
     4.40000    89.72310   178.77812     3.45634    90.27690   181.22188     3.45634
     4.50000    89.72309   178.77807     3.45634    90.27691   181.22193     3.45634
     4.60000    89.72307   178.77802     3.45633    90.27693   181.22198     3.45633
     4.70000    89.72306   178.77797     3.45632    90.27694   181.22203     3.45632
     4.80000    89.72305   178.77791     3.45631    90.27695   181.22209     3.45631
     4.90000    89.72304   178.77786     3.45630    90.27696   181.22214     3.45630
     5.00000    89.72302   178.77781     3.45629    90.27698   181.22219     3.45629
     5.10000    89.72301   178.77776     3.45628    90.27699   181.22224     3.45628
     5.20000    89.72300   178.77770     3.45627    90.27700   181.22230     3.45627
     5.30000    89.72299   178.77765     3.45626    90.27701   181.22235     3.45626
     5.40000    89.72298   178.77760     3.45625    90.27702   181.22240     3.45625
     5.50000    89.72296   178.77755     3.45624    90.27704   181.22245     3.45624
     5.60000    89.72295   178.77750     3.45623    90.27705   181.22250     3.45623
     5.70000    89.72294   178.77744     3.45622    90.27706   181.22256     3.45622
     5.80000    89.72293   178.77739     3.45621    90.27707   181.22261     3.45621
     5.90000    89.72291   178.77734     3.45620    90.27709   181.22266     3.45620
     6.00000    89.72290   178.77729     3.45618    90.27710   181.22271     3.45618
     6.10000    89.72289   178.77723     3.45617    90.27711   181.22277     3.45617
     6.20000    89.72288   178.77718     3.45616    90.27712   181.22282     3.45616
     6.30000    89.72286   178.77713     3.45615    90.27714   181.22287     3.45615
     6.40000    89.72285   178.77708     3.45614    90.27715   181.22292     3.45614
     6.50000    89.72284   178.77702     3.45613    90.27716   181.22298     3.45613
     6.60000    89.72283   178.77697     3.45612    90.27717   181.22303     3.45612
     6.70000    89.72281   178.77692     3.45611    90.27719   181.22308     3.45611
     6.80000    89.72280   178.77687     3.45610    90.27720   181.22313     3.45610
     6.90000    89.72279   178.77682     3.45609    90.27721   181.22318     3.45609
     7.00000    89.72278   178.77676     3.45608    90.27722   181.22324     3.45608
     7.10000    89.72276   178.77671     3.45607    90.27724   181.22329     3.45607
     7.20000    89.72275   178.77666     3.45606    90.27725   181.22334     3.45606
     7.30000    89.72274   178.77661     3.45605    90.27726   181.22339     3.45605
     7.40000    89.72273   178.77655     3.45604    90.27727   181.22345     3.45604
     7.50000    89.72271   178.77650     3.45603    90.27729   181.22350     3.45603
     7.60000    89.72270   178.77645     3.45602    90.27730   181.22355     3.45602
     7.70000    89.72269   178.77640     3.45601    90.27731   181.22360     3.45601
     7.80000    89.72268   178.77634     3.45600    90.27732   181.22366     3.45600
     7.90000    89.72266   178.77629     3.45599    90.27734   181.22371     3.45599
     8.00000    89.72265   178.77624     3.45598    90.27735   181.22376     3.45598
     8.10000    89.72264   178.77619     3.45597    90.27736   181.22381     3.45597
     8.20000    89.72263   178.77613     3.45596    90.27737   181.22387     3.45596
     8.30000    89.72261   178.77608     3.45595    90.27739   181.22392     3.45595
     8.40000    89.72260   178.77603     3.45593    90.27740   181.22397     3.45593
     8.50000    89.72259   178.77598     3.45592    90.27741   181.22402     3.45592
     8.60000    89.72258   178.77593     3.45591    90.27742   181.22407     3.45591
     8.70000    89.72256   178.77587     3.45590    90.27744   181.22413     3.45590
     8.80000    89.72255   178.77582     3.45589    90.27745   181.22418     3.45589
     8.90000    89.72254   178.77577     3.45588    90.27746   181.22423     3.45588
     9.00000    89.72253   178.77572     3.45587    90.27747   181.22428     3.45587
     9.10000    89.72251   178.77566     3.45586    90.27749   181.22434     3.45586
     9.20000    89.72250   178.77561     3.45585    90.27750   181.22439     3.45585
     9.30000    89.72249   178.77556     3.45584    90.27751   181.22444     3.45584
     9.40000    89.72248   178.77551     3.45583    90.27752   181.22449     3.45583
     9.50000    89.72246   178.77545     3.45582    90.27754   181.22455     3.45582
     9.60000    89.72245   178.77540     3.45581    90.27755   181.22460     3.45581
     9.70000    89.72244   178.77535     3.45579    90.27756   181.22465     3.45579
     9.80000    89.72243   178.77530     3.45578    90.27757   181.22470     3.45578
     9.90000    89.72241   178.77524     3.45577    90.27759   181.22476     3.45577
    10.00000    89.72240   178.77519     3.45576    90.27760   181.22481     3.45576
    10.10000    89.72239   178.77514     3.45575    90.27761   181.22486     3.45575
    10.20000    89.72238   178.77509     3.45574    90.27762   181.22491     3.45574
    10.30000    89.72236   178.77503     3.45573    90.27764   181.22497     3.45573
    10.40000    89.72235   178.77498     3.45572    90.27765   181.22502     3.45572
    10.50000    89.72234   178.77493     3.45571    90.27766   181.22507     3.45571
    10.60000    89.72233   178.77488     3.45570    90.27767   181.22512     3.45570
    10.70000    89.72231   178.77482     3.45568    90.27769   181.22518     3.45568
    10.80000    89.72230   178.77477     3.45567    90.27770   181.22523     3.45567
    10.90000    89.72229   178.77472     3.45566    90.27771   181.22528     3.45566
    11.00000    89.72228   178.77467     3.45565    90.27772   181.22533     3.45565
    11.10000    89.72226   178.77461     3.45564    90.27774   181.22539     3.45564
    11.20000    89.72225   178.77456     3.45563    90.27775   181.22544     3.45563
    11.30000    89.72224   178.77451     3.45562    90.27776   181.22549     3.45562
    11.40000    89.72223   178.77446     3.45561    90.27777   181.22554     3.45561
    11.50000    89.72221   178.77440     3.45559    90.27779   181.22560     3.45559
    11.60000    89.72220   178.77435     3.45558    90.27780   181.22565     3.45558
    11.70000    89.72219   178.77430     3.45557    90.27781   181.22570     3.45557
    11.80000    89.72218   178.77425     3.45556    90.27782   181.22575     3.45556
    11.90000    89.72216   178.77419     3.45555    90.27784   181.22581     3.45555
    12.00000    89.72215   178.77414     3.45554    90.27785   181.22586     3.45554
    12.10000    89.72214   178.77409     3.45553    90.27786   181.22591     3.45553
    12.20000    89.72213   178.77404     3.45552    90.27787   181.22596     3.45552
    12.30000    89.72211   178.77398     3.45550    90.27789   181.22602     3.45550
    12.40000    89.72210   178.77393     3.45549    90.27790   181.22607     3.45549
    12.50000    89.72209   178.77388     3.45548    90.27791   181.22612     3.45548
    12.60000    89.72208   178.77383     3.45547    90.27792   181.22617     3.45547
    12.70000    89.72206   178.77377     3.45546    90.27794   181.22623     3.45546
    12.80000    89.72205   178.77372     3.45545    90.27795   181.22628     3.45545
    12.90000    89.72204   178.77367     3.45543    90.27796   181.22633     3.45543
    13.00000    89.72203   178.77362     3.45542    90.27797   181.22638     3.45542
    13.10000    89.72201   178.77356     3.45541    90.27799   181.22644     3.45541
    13.20000    89.72200   178.77351     3.45540    90.27800   181.22649     3.45540
    13.30000    89.72199   178.77346     3.45539    90.27801   181.22654     3.45539
    13.40000    89.72198   178.77341     3.45538    90.27802   181.22659     3.45538
    13.50000    89.72196   178.77335     3.45537    90.27804   181.22665     3.45537
    13.60000    89.72195   178.77330     3.45535    90.27805   181.22670     3.45535
    13.70000    89.72194   178.77325     3.45534    90.27806   181.22675     3.45534
    13.80000    89.72193   178.77320     3.45533    90.27807   181.22680     3.45533
    13.90000    89.72191   178.77314     3.45532    90.27809   181.22686     3.45532
    14.00000    89.72190   178.77309     3.45531    90.27810   181.22691     3.45531
    14.10000    89.72189   178.77304     3.45529    90.27811   181.22696     3.45529
    14.20000    89.72188   178.77299     3.45528    90.27812   181.22701     3.45528
    14.30000    89.72186   178.77293     3.45527    90.27814   181.22707     3.45527
    14.40000    89.72185   178.77288     3.45526    90.27815   181.22712     3.45526
    14.50000    89.72184   178.77283     3.45525    90.27816   181.22717     3.45525
    14.60000    89.72183   178.77278     3.45524    90.27817   181.22722     3.45524
    14.70000    89.72181   178.77272     3.45522    90.27819   181.22728     3.45522
    14.80000    89.72180   178.77267     3.45521    90.27820   181.22733     3.45521
    14.90000    89.72179   178.77262     3.45520    90.27821   181.22738     3.45520
    15.00000    89.72178   178.77257     3.45519    90.27822   181.22743     3.45519
    15.10000    89.72176   178.77251     3.45518    90.27824   181.22749     3.45518
    15.20000    89.72175   178.77246     3.45516    90.27825   181.22754     3.45516
    15.30000    89.72174   178.77241     3.45515    90.27826   181.22759     3.45515
    15.40000    89.72173   178.77235     3.45514    90.27827   181.22765     3.45514
    15.50000    89.72171   178.77230     3.45513    90.27829   181.22770     3.45513
    15.60000    89.72170   178.77225     3.45511    90.27830   181.22775     3.45511
    15.70000    89.72169   178.77220     3.45510    90.27831   181.22780     3.45510
    15.80000    89.72168   178.77214     3.45509    90.27832   181.22786     3.45509
    15.90000    89.72166   178.77209     3.45508    90.27834   181.22791     3.45508
    16.00000    89.72165   178.77204     3.45507    90.27835   181.22796     3.45507
    16.10000    89.72164   178.77199     3.45505    90.27836   181.22801     3.45505
    16.20000    89.72163   178.77193     3.45504    90.27837   181.22807     3.45504
    16.30000    89.72161   178.77188     3.45503    90.27839   181.22812     3.45503
    16.40000    89.72160   178.77183     3.45502    90.27840   181.22817     3.45502
    16.50000    89.72159   178.77178     3.45501    90.27841   181.22822     3.45501
    16.60000    89.72158   178.77172     3.45499    90.27842   181.22828     3.45499
    16.70000    89.72156   178.77167     3.45498    90.27844   181.22833     3.45498
    16.80000    89.72155   178.77162     3.45497    90.27845   181.22838     3.45497
    16.90000    89.72154   178.77156     3.45496    90.27846   181.22844     3.45496
    17.00000    89.72153   178.77151     3.45494    90.27847   181.22849     3.45494
    17.10000    89.72151   178.77146     3.45493    90.27849   181.22854     3.45493
    17.20000    89.72150   178.77141     3.45492    90.27850   181.22859     3.45492
    17.30000    89.72149   178.77135     3.45491    90.27851   181.22865     3.45491
    17.40000    89.72148   178.77130     3.45489    90.27852   181.22870     3.45489
    17.50000    89.72146   178.77125     3.45488    90.27854   181.22875     3.45488
    17.60000    89.72145   178.77120     3.45487    90.27855   181.22880     3.45487
    17.70000    89.72144   178.77114     3.45486    90.27856   181.22886     3.45486
    17.80000    89.72143   178.77109     3.45484    90.27857   181.22891     3.45484
    17.90000    89.72141   178.77104     3.45483    90.27859   181.22896     3.45483
    18.00000    89.72140   178.77099     3.45482    90.27860   181.22901     3.45482
    18.10000    89.72139   178.77093     3.45481    90.27861   181.22907     3.45481
    18.20000    89.72138   178.77088     3.45479    90.27862   181.22912     3.45479
    18.30000    89.72136   178.77083     3.45478    90.27864   181.22917     3.45478
    18.40000    89.72135   178.77077     3.45477    90.27865   181.22923     3.45477
    18.50000    89.72134   178.77072     3.45475    90.27866   181.22928     3.45475
    18.60000    89.72132   178.77067     3.45474    90.27868   181.22933     3.45474
    18.70000    89.72131   178.77062     3.45473    90.27869   181.22938     3.45473
    18.80000    89.72130   178.77056     3.45472    90.27870   181.22944     3.45472
    18.90000    89.72129   178.77051     3.45470    90.27871   181.22949     3.45470
    19.00000    89.72127   178.77046     3.45469    90.27873   181.22954     3.45469
    19.10000    89.72126   178.77040     3.45468    90.27874   181.22960     3.45468
    19.20000    89.72125   178.77035     3.45467    90.27875   181.22965     3.45467
    19.30000    89.72124   178.77030     3.45465    90.27876   181.22970     3.45465
    19.40000    89.72122   178.77025     3.45464    90.27878   181.22975     3.45464
    19.50000    89.72121   178.77019     3.45463    90.27879   181.22981     3.45463
    19.60000    89.72120   178.77014     3.45461    90.27880   181.22986     3.45461
    19.70000    89.72119   178.77009     3.45460    90.27881   181.22991     3.45460
    19.80000    89.72117   178.77004     3.45459    90.27883   181.22996     3.45459
    19.90000    89.72116   178.76998     3.45457    90.27884   181.23002     3.45457
    20.00000    89.72115   178.76993     3.45456    90.27885   181.23007     3.45456
    20.10000    89.72114   178.76988     3.45455    90.27886   181.23012     3.45455
    20.20000    89.72112   178.76982     3.45454    90.27888   181.23018     3.45454
    20.30000    89.72111   178.76977     3.45452    90.27889   181.23023     3.45452
    20.40000    89.72110   178.76972     3.45451    90.27890   181.23028     3.45451
    20.50000    89.72109   178.76967     3.45450    90.27891   181.23033     3.45450
    20.60000    89.72107   178.76961     3.45448    90.27893   181.23039     3.45448
    20.70000    89.72106   178.76956     3.45447    90.27894   181.23044     3.45447
    20.80000    89.72105   178.76951     3.45446    90.27895   181.23049     3.45446
    20.90000    89.72104   178.76945     3.45444    90.27896   181.23055     3.45444
    21.00000    89.72102   178.76940     3.45443    90.27898   181.23060     3.45443
    21.10000    89.72101   178.76935     3.45442    90.27899   181.23065     3.45442
    21.20000    89.72100   178.76930     3.45440    90.27900   181.23070     3.45440
    21.30000    89.72099   178.76924     3.45439    90.27901   181.23076     3.45439
    21.40000    89.72097   178.76919     3.45438    90.27903   181.23081     3.45438
    21.50000    89.72096   178.76914     3.45436    90.27904   181.23086     3.45436
    21.60000    89.72095   178.76908     3.45435    90.27905   181.23092     3.45435
    21.70000    89.72094   178.76903     3.45434    90.27906   181.23097     3.45434
    21.80000    89.72092   178.76898     3.45432    90.27908   181.23102     3.45432
    21.90000    89.72091   178.76893     3.45431    90.27909   181.23107     3.45431
    22.00000    89.72090   178.76887     3.45430    90.27910   181.23113     3.45430
    22.10000    89.72089   178.76882     3.45428    90.27911   181.23118     3.45428
    22.20000    89.72087   178.76877     3.45427    90.27913   181.23123     3.45427
    22.30000    89.72086   178.76871     3.45426    90.27914   181.23129     3.45426
    22.40000    89.72085   178.76866     3.45424    90.27915   181.23134     3.45424
    22.50000    89.72083   178.76861     3.45423    90.27917   181.23139     3.45423
    22.60000    89.72082   178.76856     3.45422    90.27918   181.23144     3.45422
    22.70000    89.72081   178.76850     3.45420    90.27919   181.23150     3.45420
    22.80000    89.72080   178.76845     3.45419    90.27920   181.23155     3.45419
    22.90000    89.72078   178.76840     3.45418    90.27922   181.23160     3.45418
    23.00000    89.72077   178.76834     3.45416    90.27923   181.23166     3.45416
    23.10000    89.72076   178.76829     3.45415    90.27924   181.23171     3.45415
    23.20000    89.72075   178.76824     3.45413    90.27925   181.23176     3.45413
    23.30000    89.72073   178.76819     3.45412    90.27927   181.23181     3.45412
