 # applied field (T), theta (degree), phi (degree), abs [muB/unitcell], abs [T]
       0.00000000       0.00000000       0.00000000      36.72285811       1.22763783
       0.10000000       1.25858234     360.00000000      36.72272652       1.22763343
       0.20000000       2.51718874     360.00000000      36.72251375       1.22762632
       0.30000000       3.77582868     360.00000000      36.72222092       1.22761653
       0.40000000       5.03451106     360.00000000      36.72184957       1.22760412
       0.50000000       6.29324421     360.00000000      36.72140167       1.22758915
       0.60000000       7.55203592     360.00000000      36.72087958       1.22757169
       0.70000000       8.86808407     360.00000000      36.72025576       1.22755084
       0.80000000      10.12701776     360.00000000      36.71959089       1.22752861
       0.90000000      11.44322882     360.00000000      36.71882476       1.22750300
       1.00000000      12.75953322     360.00000000      36.71799230       1.22747517
       1.10000000      14.07593692     360.00000000      36.71709849       1.22744529
       1.20000000      15.44965737     360.00000000      36.71610330       1.22741202
       1.30000000      16.82349740     360.00000000      36.71505310       1.22737691
       1.40000000      18.19746161     360.00000000      36.71395470       1.22734019
       1.50000000      19.62878258     360.00000000      36.71276344       1.22730037
       1.60000000      21.11748154     360.00000000      36.71148198       1.22725753
       1.70000000      22.60633886     360.00000000      36.71016973       1.22721366
       1.80000000      24.09535694     360.00000000      36.70883625       1.22716909
       1.90000000      25.69904705     360.00000000      36.70737906       1.22712037
       2.00000000      27.30292785     360.00000000      36.70591905       1.22707156
       2.10000000      28.96426912     360.00000000      36.70441166       1.22702117
       2.20000000      30.68309252     360.00000000      36.70286969       1.22696962
       2.30000000      32.51670480     360.00000000      36.70125340       1.22691559
       2.40000000      34.35056435     360.00000000      36.69968783       1.22686326
       2.50000000      36.35657271     360.00000000      36.69803296       1.22680793
       2.60000000      38.47749024     360.00000000      36.69636707       1.22675224
       2.70000000      40.65604114     360.00000000      36.69476019       1.22669853
       2.80000000      43.06422852     360.00000000      36.69310090       1.22664306
       2.90000000      45.70214690     360.00000000      36.69142877       1.22658716
       3.00000000      48.56988305     360.00000000      36.68977790       1.22653197
       3.10000000      51.78222628     360.00000000      36.68810692       1.22647611
       3.20000000      55.51138139     360.00000000      36.68635040       1.22641739
       3.30000000      59.98698326     360.00000000      36.68441887       1.22635282
       3.40000000      65.84029741     360.00000000      36.68198915       1.22627159
       3.50000000      74.79281271     360.00000000      36.67814031       1.22614293
       3.60000000      90.00000000     360.00000000      36.67149171       1.22592067
       3.70000000      90.00000000     360.00000000      36.67174183       1.22592903
       3.80000000      90.00000000     360.00000000      36.67199192       1.22593739
       3.90000000      90.00000000     360.00000000      36.67224199       1.22594575
       4.00000000      90.00000000     360.00000000      36.67249203       1.22595411
       4.10000000      90.00000000     360.00000000      36.67274206       1.22596246
       4.20000000      90.00000000     360.00000000      36.67299206       1.22597082
       4.30000000      90.00000000     360.00000000      36.67324204       1.22597918
       4.40000000      90.00000000     360.00000000      36.67349200       1.22598753
       4.50000000      90.00000000     360.00000000      36.67374194       1.22599589
       4.60000000      90.00000000     360.00000000      36.67399186       1.22600424
       4.70000000      90.00000000     360.00000000      36.67424175       1.22601260
       4.80000000      90.00000000     360.00000000      36.67449163       1.22602095
       4.90000000      90.00000000     360.00000000      36.67474148       1.22602930
       5.00000000      90.00000000     360.00000000      36.67499130       1.22603766
       5.10000000      90.00000000     360.00000000      36.67524111       1.22604601
       5.20000000      90.00000000     360.00000000      36.67549090       1.22605436
       5.30000000      90.00000000     360.00000000      36.67574066       1.22606271
       5.40000000      90.00000000     360.00000000      36.67599040       1.22607106
       5.50000000      90.00000000     360.00000000      36.67624012       1.22607940
       5.60000000      90.00000000     360.00000000      36.67648982       1.22608775
       5.70000000      90.00000000     360.00000000      36.67673949       1.22609610
       5.80000000      90.00000000     360.00000000      36.67698915       1.22610444
       5.90000000      90.00000000     360.00000000      36.67723878       1.22611279
       6.00000000      90.00000000     360.00000000      36.67748839       1.22612113
       6.10000000      90.00000000     360.00000000      36.67773798       1.22612948
       6.20000000      90.00000000     360.00000000      36.67798755       1.22613782
       6.30000000      90.00000000     360.00000000      36.67823709       1.22614616
       6.40000000      90.00000000     360.00000000      36.67848661       1.22615450
       6.50000000      90.00000000     360.00000000      36.67873612       1.22616284
       6.60000000      90.00000000     360.00000000      36.67898560       1.22617118
       6.70000000      90.00000000     360.00000000      36.67923505       1.22617952
       6.80000000      90.00000000     360.00000000      36.67948449       1.22618786
       6.90000000      90.00000000     360.00000000      36.67973391       1.22619620
       7.00000000      90.00000000     360.00000000      36.67998330       1.22620454
       7.10000000      90.00000000     360.00000000      36.68023267       1.22621287
       7.20000000      90.00000000     360.00000000      36.68048202       1.22622121
       7.30000000      90.00000000     360.00000000      36.68073135       1.22622954
       7.40000000      90.00000000     360.00000000      36.68098066       1.22623788
       7.50000000      90.00000000     360.00000000      36.68122994       1.22624621
       7.60000000      90.00000000     360.00000000      36.68147920       1.22625455
       7.70000000      90.00000000     360.00000000      36.68172845       1.22626288
       7.80000000      90.00000000     360.00000000      36.68197767       1.22627121
       7.90000000      90.00000000     360.00000000      36.68222686       1.22627954
       8.00000000      90.00000000     360.00000000      36.68247604       1.22628787
       8.10000000      90.00000000     360.00000000      36.68272520       1.22629620
       8.20000000      90.00000000     360.00000000      36.68297433       1.22630453
       8.30000000      90.00000000     360.00000000      36.68322344       1.22631285
       8.40000000      90.00000000     360.00000000      36.68347253       1.22632118
       8.50000000      90.00000000     360.00000000      36.68372160       1.22632951
       8.60000000      90.00000000     360.00000000      36.68397065       1.22633783
       8.70000000      90.00000000     360.00000000      36.68421967       1.22634616
       8.80000000      90.00000000     360.00000000      36.68446868       1.22635448
       8.90000000      90.00000000     360.00000000      36.68471766       1.22636281
       9.00000000      90.00000000     360.00000000      36.68496662       1.22637113
       9.10000000      90.00000000     360.00000000      36.68521556       1.22637945
       9.20000000      90.00000000     360.00000000      36.68546448       1.22638777
       9.30000000      90.00000000     360.00000000      36.68571338       1.22639609
       9.40000000      90.00000000     360.00000000      36.68596225       1.22640441
       9.50000000      90.00000000     360.00000000      36.68621111       1.22641273
       9.60000000      90.00000000     360.00000000      36.68645994       1.22642105
       9.70000000      90.00000000     360.00000000      36.68670875       1.22642937
       9.80000000      90.00000000     360.00000000      36.68695754       1.22643768
       9.90000000      90.00000000     360.00000000      36.68720631       1.22644600
      10.00000000      90.00000000     360.00000000      36.68745505       1.22645432
      10.10000000      90.00000000     360.00000000      36.68770378       1.22646263
      10.20000000      90.00000000     360.00000000      36.68795248       1.22647095
      10.30000000      90.00000000     360.00000000      36.68820117       1.22647926
      10.40000000      90.00000000     360.00000000      36.68844983       1.22648757
      10.50000000      90.00000000     360.00000000      36.68869847       1.22649588
      10.60000000      90.00000000     360.00000000      36.68894708       1.22650419
      10.70000000      90.00000000     360.00000000      36.68919568       1.22651251
      10.80000000      90.00000000     360.00000000      36.68944426       1.22652082
      10.90000000      90.00000000     360.00000000      36.68969281       1.22652912
      11.00000000      90.00000000     360.00000000      36.68994134       1.22653743
      11.10000000      90.00000000     360.00000000      36.69018986       1.22654574
      11.20000000      90.00000000     360.00000000      36.69043835       1.22655405
      11.30000000      90.00000000     360.00000000      36.69068681       1.22656235
      11.40000000      90.00000000     360.00000000      36.69093526       1.22657066
      11.50000000      90.00000000     360.00000000      36.69118369       1.22657896
      11.60000000      90.00000000     360.00000000      36.69143209       1.22658727
      11.70000000      90.00000000     360.00000000      36.69168048       1.22659557
      11.80000000      90.00000000     360.00000000      36.69192884       1.22660387
      11.90000000      90.00000000     360.00000000      36.69217718       1.22661218
      12.00000000      90.00000000     360.00000000      36.69242550       1.22662048
      12.10000000      90.00000000     360.00000000      36.69267380       1.22662878
      12.20000000      90.00000000     360.00000000      36.69292208       1.22663708
      12.30000000      90.00000000     360.00000000      36.69317033       1.22664538
      12.40000000      90.00000000     360.00000000      36.69341857       1.22665368
      12.50000000      90.00000000     360.00000000      36.69366678       1.22666197
      12.60000000      90.00000000     360.00000000      36.69391497       1.22667027
      12.70000000      90.00000000     360.00000000      36.69416314       1.22667857
      12.80000000      90.00000000     360.00000000      36.69441129       1.22668686
      12.90000000      90.00000000     360.00000000      36.69465942       1.22669516
      13.00000000      90.00000000     360.00000000      36.69490753       1.22670345
      13.10000000      90.00000000     360.00000000      36.69515562       1.22671174
      13.20000000      90.00000000     360.00000000      36.69540368       1.22672004
      13.30000000      90.00000000     360.00000000      36.69565173       1.22672833
      13.40000000      90.00000000     360.00000000      36.69589975       1.22673662
      13.50000000      90.00000000     360.00000000      36.69614775       1.22674491
      13.60000000      90.00000000     360.00000000      36.69639573       1.22675320
      13.70000000      90.00000000     360.00000000      36.69664369       1.22676149
      13.80000000      90.00000000     360.00000000      36.69689163       1.22676978
      13.90000000      90.00000000     360.00000000      36.69713955       1.22677807
      14.00000000      90.00000000     360.00000000      36.69738744       1.22678635
      14.10000000      90.00000000     360.00000000      36.69763532       1.22679464
      14.20000000      90.00000000     360.00000000      36.69788317       1.22680293
      14.30000000      90.00000000     360.00000000      36.69813101       1.22681121
      14.40000000      90.00000000     360.00000000      36.69837882       1.22681950
      14.50000000      90.00000000     360.00000000      36.69862661       1.22682778
      14.60000000      90.00000000     360.00000000      36.69887438       1.22683606
      14.70000000      90.00000000     360.00000000      36.69912213       1.22684434
      14.80000000      90.00000000     360.00000000      36.69936986       1.22685263
      14.90000000      90.00000000     360.00000000      36.69961756       1.22686091
      15.00000000      90.00000000     360.00000000      36.69986525       1.22686919
      15.10000000      90.00000000     360.00000000      36.70011291       1.22687747
      15.20000000      90.00000000     360.00000000      36.70036056       1.22688575
      15.30000000      90.00000000     360.00000000      36.70060818       1.22689402
      15.40000000      90.00000000     360.00000000      36.70085578       1.22690230
      15.50000000      90.00000000     360.00000000      36.70110336       1.22691058
      15.60000000      90.00000000     360.00000000      36.70135092       1.22691885
      15.70000000      90.00000000     360.00000000      36.70159846       1.22692713
      15.80000000      90.00000000     360.00000000      36.70184598       1.22693540
      15.90000000      90.00000000     360.00000000      36.70209348       1.22694368
      16.00000000      90.00000000     360.00000000      36.70234095       1.22695195
      16.10000000      90.00000000     360.00000000      36.70258841       1.22696022
      16.20000000      90.00000000     360.00000000      36.70283584       1.22696849
      16.30000000      90.00000000     360.00000000      36.70308326       1.22697676
      16.40000000      90.00000000     360.00000000      36.70333065       1.22698503
      16.50000000      90.00000000     360.00000000      36.70357802       1.22699330
      16.60000000      90.00000000     360.00000000      36.70382537       1.22700157
      16.70000000      90.00000000     360.00000000      36.70407270       1.22700984
      16.80000000      90.00000000     360.00000000      36.70432001       1.22701811
      16.90000000      90.00000000     360.00000000      36.70456730       1.22702638
      17.00000000      90.00000000     360.00000000      36.70481457       1.22703464
      17.10000000      90.00000000     360.00000000      36.70506182       1.22704291
      17.20000000      90.00000000     360.00000000      36.70530904       1.22705117
      17.30000000      90.00000000     360.00000000      36.70555625       1.22705944
      17.40000000      90.00000000     360.00000000      36.70580343       1.22706770
      17.50000000      90.00000000     360.00000000      36.70605060       1.22707596
      17.60000000      90.00000000     360.00000000      36.70629774       1.22708422
      17.70000000      90.00000000     360.00000000      36.70654486       1.22709249
      17.80000000      90.00000000     360.00000000      36.70679196       1.22710075
      17.90000000      90.00000000     360.00000000      36.70703904       1.22710901
      18.00000000      90.00000000     360.00000000      36.70728610       1.22711726
      18.10000000      90.00000000     360.00000000      36.70753314       1.22712552
      18.20000000      90.00000000     360.00000000      36.70778016       1.22713378
      18.30000000      90.00000000     360.00000000      36.70802716       1.22714204
      18.40000000      90.00000000     360.00000000      36.70827413       1.22715029
      18.50000000      90.00000000     360.00000000      36.70852109       1.22715855
      18.60000000      90.00000000     360.00000000      36.70876803       1.22716680
      18.70000000      90.00000000     360.00000000      36.70901494       1.22717506
      18.80000000      90.00000000     360.00000000      36.70926183       1.22718331
      18.90000000      90.00000000     360.00000000      36.70950871       1.22719157
      19.00000000      90.00000000     360.00000000      36.70975556       1.22719982
      19.10000000      90.00000000     360.00000000      36.71000239       1.22720807
      19.20000000      90.00000000     360.00000000      36.71024920       1.22721632
      19.30000000      90.00000000     360.00000000      36.71049599       1.22722457
      19.40000000      90.00000000     360.00000000      36.71074277       1.22723282
      19.50000000      90.00000000     360.00000000      36.71098951       1.22724107
      19.60000000      90.00000000     360.00000000      36.71123624       1.22724932
      19.70000000      90.00000000     360.00000000      36.71148295       1.22725756
      19.80000000      90.00000000     360.00000000      36.71172964       1.22726581
      19.90000000      90.00000000     360.00000000      36.71197631       1.22727406
      20.00000000      90.00000000     360.00000000      36.71222295       1.22728230
      20.10000000      90.00000000     360.00000000      36.71246958       1.22729055
      20.20000000      90.00000000     360.00000000      36.71271619       1.22729879
      20.30000000      90.00000000     360.00000000      36.71296277       1.22730703
      20.40000000      90.00000000     360.00000000      36.71320933       1.22731528
      20.50000000      90.00000000     360.00000000      36.71345588       1.22732352
      20.60000000      90.00000000     360.00000000      36.71370240       1.22733176
      20.70000000      90.00000000     360.00000000      36.71394890       1.22734000
      20.80000000      90.00000000     360.00000000      36.71419539       1.22734824
      20.90000000      90.00000000     360.00000000      36.71444185       1.22735648
      21.00000000      90.00000000     360.00000000      36.71468829       1.22736472
      21.10000000      90.00000000     360.00000000      36.71493471       1.22737296
      21.20000000      90.00000000     360.00000000      36.71518111       1.22738119
      21.30000000      90.00000000     360.00000000      36.71542749       1.22738943
      21.40000000      90.00000000     360.00000000      36.71567385       1.22739767
      21.50000000      90.00000000     360.00000000      36.71592019       1.22740590
      21.60000000      90.00000000     360.00000000      36.71616651       1.22741413
      21.70000000      90.00000000     360.00000000      36.71641281       1.22742237
      21.80000000      90.00000000     360.00000000      36.71665908       1.22743060
      21.90000000      90.00000000     360.00000000      36.71690534       1.22743883
      22.00000000      90.00000000     360.00000000      36.71715158       1.22744707
      22.10000000      90.00000000     360.00000000      36.71739779       1.22745530
      22.20000000      90.00000000     360.00000000      36.71764399       1.22746353
      22.30000000      90.00000000     360.00000000      36.71789017       1.22747176
      22.40000000      90.00000000     360.00000000      36.71813632       1.22747999
      22.50000000      90.00000000     360.00000000      36.71838246       1.22748821
      22.60000000      90.00000000     360.00000000      36.71862857       1.22749644
      22.70000000      90.00000000     360.00000000      36.71887466       1.22750467
      22.80000000      90.00000000     360.00000000      36.71912074       1.22751289
      22.90000000      90.00000000     360.00000000      36.71936679       1.22752112
      23.00000000      90.00000000     360.00000000      36.71961282       1.22752934
