 # applied field (T), theta (degree), phi (degree), abs for RE 1-2
     0.00000    90.00000    45.40378     0.32640    90.00000    45.40378     0.32640
     0.10000    90.17534    45.40378     0.32641    90.17534    45.40378     0.32641
     0.20000    90.35066    44.59622     0.32642    90.35066    44.59622     0.32642
     0.30000    90.48190    45.40379     0.32644    90.48190    45.40379     0.32644
     0.40000    90.65713    45.40379     0.32648    90.65713    45.40379     0.32648
     0.50000    90.83227    44.59620     0.32652    90.83227    44.59620     0.32652
     0.60000    91.00731    45.40380     0.32657    91.00731    45.40380     0.32657
     0.70000    91.13828    45.40381     0.32662    91.13828    45.40381     0.32662
     0.80000    91.31308    44.59618     0.32670    91.31308    44.59618     0.32670
     0.90000    91.48771    44.59617     0.32678    91.48771    44.59617     0.32678
     1.00000    91.66216    45.40384     0.32687    91.66216    45.40384     0.32687
     1.10000    91.83641    44.59614     0.32698    91.83641    44.59614     0.32698
     1.20000    91.96669    44.59613     0.32706    91.96669    44.59613     0.32706
     1.30000    92.14051    44.59611     0.32718    92.14051    44.59611     0.32718
     1.40000    92.31407    45.40390     0.32732    92.31407    45.40390     0.32732
     1.50000    92.48733    44.59608     0.32746    92.48733    44.59608     0.32746
     1.60000    92.61680    44.59606     0.32758    92.61680    44.59606     0.32758
     1.70000    92.78951    44.59604     0.32774    92.78951    44.59604     0.32774
     1.80000    92.96187    44.59602     0.32791    92.96187    44.59602     0.32791
     1.90000    93.09059    45.40400     0.32805    93.09059    45.40400     0.32805
     2.00000    93.26228    45.40402     0.32823    93.26228    45.40402     0.32823
     2.10000    93.43357    45.40405     0.32843    93.43357    45.40405     0.32843
     2.20000    93.60444    44.59592     0.32864    93.60444    44.59592     0.32864
     2.30000    93.73196    45.40410     0.32881    93.73196    45.40410     0.32881
     2.40000    93.90202    44.59587     0.32904    93.90202    44.59587     0.32904
     2.50000    94.07163    45.00000     0.32927    94.07163    45.00000     0.32927
     2.60000    94.19811    45.00000     0.32946    94.19811    45.00000     0.32946
     2.70000    94.36680    45.00000     0.32972    94.36680    45.00000     0.32972
     2.80000    94.53496    45.00000     0.32998    94.53496    45.00000     0.32998
     2.90000    94.66029    45.00000     0.33019    94.66029    45.00000     0.33019
     3.00000    94.82745    45.00000     0.33047    94.82745    45.00000     0.33047
     3.10000    94.99403    45.00000     0.33077    94.99403    45.00000     0.33077
     3.20000    95.11810    45.00000     0.33100    95.11810    45.00000     0.33100
     3.30000    95.28359    45.00000     0.33131    95.28359    45.00000     0.33131
     3.40000    95.40680    45.00000     0.33155    95.40680    45.00000     0.33155
     3.50000    95.57114    45.00000     0.33188    95.57114    45.00000     0.33188
     3.60000    95.73482    45.00000     0.33222    95.73482    45.00000     0.33222
     3.70000    95.85659    45.00000     0.33248    95.85659    45.00000     0.33248
     3.80000    96.01903    45.00000     0.33284    96.01903    45.00000     0.33284
     3.90000    96.13979    44.58747     0.33312    96.13979    44.58747     0.33312
     4.00000    96.30094    45.41258     0.33349    96.30094    45.41258     0.33349
     4.10000    96.42072    44.58738     0.33378    96.42072    44.58738     0.33378
     4.20000    96.58053    45.41267     0.33417    96.58053    45.41267     0.33417
     4.30000    96.69925    44.58729     0.33448    96.69925    44.58729     0.33448
     4.40000    96.85767    44.58724     0.33488    96.85767    44.58724     0.33488
     4.50000    96.97529    45.41280     0.33520    96.97529    45.41280     0.33520
     4.60000    97.13228    44.58714     0.33562    97.13228    44.58714     0.33562
     4.70000    97.24876    44.58709     0.33595    97.24876    44.58709     0.33595
     4.80000    97.40425    44.58704     0.33639    97.40425    44.58704     0.33639
     4.90000    97.55892    45.00000     0.33684    97.55892    45.00000     0.33684
     5.00000    97.63438    45.00000     0.33709    97.63438    45.00000     0.33709
     5.10000    97.78765    45.00000     0.33755    97.78765    45.00000     0.33755
     5.20000    97.90121    45.00000     0.33791    97.90121    45.00000     0.33791
     5.30000    98.05288    45.00000     0.33839    98.05288    45.00000     0.33839
     5.40000    98.16518    45.00000     0.33877    98.16518    45.00000     0.33877
     5.50000    98.27692    45.00000     0.33915    98.27692    45.00000     0.33915
     5.60000    98.42621    45.00000     0.33965    98.42621    45.00000     0.33965
     5.70000    98.53664    45.00000     0.34004    98.53664    45.00000     0.34004
     5.80000    98.64649    45.00000     0.34044    98.64649    45.00000     0.34044
     5.90000    98.79327    45.42176     0.34096    98.79327    45.42176     0.34096
     6.00000    98.90177    44.57818     0.34137    98.90177    44.57818     0.34137
     6.10000    99.00967    44.57813     0.34179    99.00967    44.57813     0.34179
     6.20000    99.11696    44.57807     0.34221    99.11696    44.57807     0.34221
     6.30000    99.26046    45.42200     0.34276    99.26046    45.42200     0.34276
     6.40000    99.36634    44.57794     0.34320    99.36634    44.57794     0.34320
     6.50000    99.47160    45.42212     0.34364    99.47160    45.42212     0.34364
     6.60000    99.61250    45.00000     0.34421    99.61250    45.00000     0.34421
     6.70000    99.68029    45.00000     0.34453    99.68029    45.00000     0.34453
     6.80000    99.78365    45.00000     0.34498    99.78365    45.00000     0.34498
     6.90000    99.92203    45.00000     0.34558    99.92203    45.00000     0.34558
     7.00000   100.02391    45.00000     0.34604   100.02391    45.00000     0.34604
     7.10000   100.12514    45.00000     0.34651   100.12514    45.00000     0.34651
     7.20000   100.22571    45.00000     0.34699   100.22571    45.00000     0.34699
     7.30000   100.32562    45.00000     0.34747   100.32562    45.00000     0.34747
     7.40000   100.42480    44.56876     0.34796   100.42480    44.56876     0.34796
     7.50000   100.52337    45.43131     0.34845   100.52337    45.43131     0.34845
     7.60000   100.62126    44.56862     0.34894   100.62126    44.56862     0.34894
     7.70000   100.71847    45.43145     0.34944   100.71847    45.43145     0.34944
     7.80000   100.81500    45.43152     0.34995   100.81500    45.43152     0.34995
     7.90000   100.91084    44.56841     0.35046   100.91084    44.56841     0.35046
     8.00000   101.00599    44.56834     0.35097   101.00599    44.56834     0.35097
     8.10000   101.10050    45.00000     0.35149   101.10050    45.00000     0.35149
     8.20000   101.19426    45.00000     0.35202   101.19426    45.00000     0.35202
     8.30000   101.28732    45.00000     0.35254   101.28732    45.00000     0.35254
     8.40000   101.34695    45.00000     0.35292   101.34695    45.00000     0.35292
     8.50000   101.43880    45.00000     0.35346   101.43880    45.00000     0.35346
     8.60000   101.52994    45.00000     0.35400   101.52994    45.00000     0.35400
     8.70000   101.62036    45.00000     0.35455   101.62036    45.00000     0.35455
     8.80000   101.71000    44.55887     0.35510   101.71000    44.55887     0.35510
     8.90000   101.79899    44.55880     0.35565   101.79899    44.55880     0.35565
     9.00000   101.85572    45.44126     0.35605   101.85572    45.44126     0.35605
     9.10000   101.94347    44.55866     0.35661   101.94347    44.55866     0.35661
     9.20000   102.03049    44.55858     0.35718   102.03049    44.55858     0.35718
     9.30000   102.11677    45.44149     0.35775   102.11677    45.44149     0.35775
     9.40000   102.17164    45.00000     0.35816   102.17164    45.00000     0.35816
     9.50000   102.25668    45.00000     0.35874   102.25668    45.00000     0.35874
     9.60000   102.34098    45.00000     0.35932   102.34098    45.00000     0.35932
     9.70000   102.39436    45.00000     0.35974   102.39436    45.00000     0.35974
     9.80000   102.47740    45.00000     0.36033   102.47740    45.00000     0.36033
     9.90000   102.55969    45.00000     0.36092   102.55969    45.00000     0.36092
    10.00000   102.61164    45.00000     0.36135   102.61164    45.00000     0.36135
    10.10000   102.69259    45.45138     0.36195   102.69259    45.45138     0.36195
    10.20000   102.77286    44.54854     0.36255   102.77286    44.54854     0.36255
    10.30000   102.82337    45.45153     0.36299   102.82337    45.45153     0.36299
    10.40000   102.90235    44.54839     0.36360   102.90235    44.54839     0.36360
    10.50000   102.95195    44.54832     0.36404   102.95195    44.54832     0.36404
    10.60000   103.02964    44.54824     0.36466   103.02964    44.54824     0.36466
    10.70000   103.07838    45.00000     0.36510   103.07838    45.00000     0.36510
    10.80000   103.15478    45.00000     0.36573   103.15478    45.00000     0.36573
    10.90000   103.20254    45.00000     0.36618   103.20254    45.00000     0.36618
    11.00000   103.27764    45.00000     0.36681   103.27764    45.00000     0.36681
    11.10000   103.32447    45.00000     0.36726   103.32447    45.00000     0.36726
    11.20000   103.39827    45.00000     0.36790   103.39827    45.00000     0.36790
    11.30000   103.44410    44.53800     0.36836   103.44410    44.53800     0.36836
    11.40000   103.48961    45.46207     0.36882   103.48961    45.46207     0.36882
    11.50000   103.56156    44.53784     0.36947   103.56156    44.53784     0.36947
    11.60000   103.60614    45.46223     0.36993   103.60614    45.46223     0.36993
    11.70000   103.65034    44.53770     0.37040   103.65034    44.53770     0.37040
    11.80000   103.72043    45.46239     0.37106   103.72043    45.46239     0.37106
    11.90000   103.76376    45.00000     0.37153   103.76376    45.00000     0.37153
    12.00000   103.80663    45.00000     0.37200   103.80663    45.00000     0.37200
    12.10000   103.87487    45.00000     0.37267   103.87487    45.00000     0.37267
    12.20000   103.91680    45.00000     0.37314   103.91680    45.00000     0.37314
    12.30000   103.95834    45.00000     0.37362   103.95834    45.00000     0.37362
    12.40000   103.99949    45.00000     0.37410   103.99949    45.00000     0.37410
    12.50000   104.06525    44.52691     0.37478   104.06525    44.52691     0.37478
    12.60000   104.10546    44.52684     0.37527   104.10546    44.52684     0.37527
    12.70000   104.14528    44.52677     0.37575   104.14528    44.52677     0.37575
    12.80000   104.18471    45.47330     0.37624   104.18471    45.47330     0.37624
    12.90000   104.22375    44.52663     0.37673   104.22375    44.52663     0.37673
    13.00000   104.26239    45.47344     0.37722   104.26239    45.47344     0.37722
    13.10000   104.32478    45.00000     0.37792   104.32478    45.00000     0.37792
    13.20000   104.36248    45.00000     0.37841   104.36248    45.00000     0.37841
    13.30000   104.39979    45.00000     0.37891   104.39979    45.00000     0.37891
    13.40000   104.43671    45.00000     0.37941   104.43671    45.00000     0.37941
    13.50000   104.47324    45.00000     0.37991   104.47324    45.00000     0.37991
    13.60000   104.50938    45.00000     0.38041   104.50938    45.00000     0.38041
    13.70000   104.54505    45.48462     0.38092   104.54505    45.48462     0.38092
    13.80000   104.58040    44.51530     0.38142   104.58040    44.51530     0.38142
    13.90000   104.61536    44.51523     0.38193   104.61536    44.51523     0.38193
    14.00000   104.64993    44.51515     0.38244   104.64993    44.51515     0.38244
    14.10000   104.68410    45.48492     0.38295   104.68410    45.48492     0.38295
    14.20000   104.71788    45.48500     0.38346   104.71788    45.48500     0.38346
    14.30000   104.75135    45.00000     0.38397   104.75135    45.00000     0.38397
    14.40000   104.78435    45.00000     0.38449   104.78435    45.00000     0.38449
    14.50000   104.81696    45.00000     0.38501   104.81696    45.00000     0.38501
    14.60000   104.84917    45.00000     0.38553   104.84917    45.00000     0.38553
    14.70000   104.88099    45.00000     0.38605   104.88099    45.00000     0.38605
    14.80000   104.89105    45.00000     0.38635   104.89105    45.00000     0.38635
    14.90000   104.92217    44.50334     0.38688   104.92217    44.50334     0.38688
    15.00000   104.95297    44.50326     0.38740   104.95297    44.50326     0.38740
    15.10000   104.98338    45.49682     0.38793   104.98338    45.49682     0.38793
    15.20000   105.01341    44.50311     0.38845   105.01341    44.50311     0.38845
    15.30000   105.04304    45.49697     0.38898   105.04304    45.49697     0.38898
    15.40000   105.05178    45.49702     0.38930   105.05178    45.49702     0.38930
    15.50000   105.08086    45.00000     0.38983   105.08086    45.00000     0.38983
    15.60000   105.10948    45.00000     0.39036   105.10948    45.00000     0.39036
    15.70000   105.13770    45.00000     0.39089   105.13770    45.00000     0.39089
    15.80000   105.16554    45.00000     0.39143   105.16554    45.00000     0.39143
    15.90000   105.17320    45.00000     0.39174   105.17320    45.00000     0.39174
    16.00000   105.20041    45.00000     0.39228   105.20041    45.00000     0.39228
    16.10000   105.22715    44.49075     0.39282   105.22715    44.49075     0.39282
    16.20000   105.23421    45.50931     0.39314   105.23421    45.50931     0.39314
    16.30000   105.26040    44.49061     0.39368   105.26040    44.49061     0.39368
    16.40000   105.28621    44.49053     0.39422   105.28621    44.49053     0.39422
    16.50000   105.29266    44.49048     0.39454   105.29266    44.49048     0.39454
    16.60000   105.31785    45.50960     0.39509   105.31785    45.50960     0.39509
    16.70000   105.34273    45.00000     0.39563   105.34273    45.00000     0.39563
    16.80000   105.34857    45.00000     0.39596   105.34857    45.00000     0.39596
    16.90000   105.37275    45.00000     0.39650   105.37275    45.00000     0.39650
    17.00000   105.37822    45.00000     0.39683   105.37822    45.00000     0.39683
    17.10000   105.40177    45.00000     0.39738   105.40177    45.00000     0.39738
    17.20000   105.42494    45.00000     0.39793   105.42494    45.00000     0.39793
    17.30000   105.41183    45.00000     0.39803   105.41183    45.00000     0.39803
    17.40000   105.45227    45.52246     0.39881   105.45227    45.52246     0.39881
    17.50000   105.45676    45.52251     0.39914   105.45676    45.52251     0.39914
    17.60000   105.47869    44.47740     0.39969   105.47869    44.47740     0.39969
    17.70000   105.48282    44.47735     0.40002   105.48282    44.47735     0.40002
    17.80000   105.50413    45.52274     0.40058   105.50413    45.52274     0.40058
    17.90000   105.50796    45.00000     0.40091   105.50796    45.00000     0.40091
    18.00000   105.52866    45.00000     0.40147   105.52866    45.00000     0.40147
    18.10000   105.53204    45.00000     0.40180   105.53204    45.00000     0.40180
    18.20000   105.55211    45.00000     0.40236   105.55211    45.00000     0.40236
    18.30000   105.55512    45.00000     0.40269   105.55512    45.00000     0.40269
    18.40000   105.55799    45.00000     0.40303   105.55799    45.00000     0.40303
    18.50000   105.57722    45.00000     0.40359   105.57722    45.00000     0.40359
    18.60000   105.57964    45.53618     0.40392   105.57964    45.53618     0.40392
    18.70000   105.59826    44.46373     0.40449   105.59826    44.46373     0.40449
    18.80000   105.60039    45.53632     0.40482   105.60039    45.53632     0.40482
    18.90000   105.60238    44.46362     0.40516   105.60238    44.46362     0.40516
    19.00000   105.62015    44.46353     0.40572   105.62015    44.46353     0.40572
    19.10000   105.62177    45.53652     0.40606   105.62177    45.53652     0.40606
    19.20000   105.62334    45.00000     0.40640   105.62334    45.00000     0.40640
    19.30000   105.64027    45.00000     0.40697   105.64027    45.00000     0.40697
    19.40000   105.64139    45.00000     0.40731   105.64139    45.00000     0.40731
    19.50000   105.64236    45.00000     0.40764   105.64236    45.00000     0.40764
    19.60000   105.65846    45.00000     0.40821   105.65846    45.00000     0.40821
    19.70000   105.65906    45.00000     0.40855   105.65906    45.00000     0.40855
    19.80000   105.64445    45.00000     0.40866   105.64445    45.00000     0.40866
    19.90000   105.65978    45.55063     0.40923   105.65978    45.55063     0.40923
    20.00000   105.67480    45.55072     0.40981   105.67480    45.55072     0.40981
    20.10000   105.67477    44.44922     0.41015   105.67477    44.44922     0.41015
    20.20000   105.67459    44.44917     0.41049   105.67459    44.44917     0.41049
    20.30000   105.67428    44.44911     0.41083   105.67428    44.44911     0.41083
    20.40000   105.68824    45.55098     0.41141   105.68824    45.55098     0.41141
    20.50000   105.68765    45.00000     0.41175   105.68765    45.00000     0.41175
    20.60000   105.68683    45.00000     0.41209   105.68683    45.00000     0.41209
    20.70000   105.68588    45.00000     0.41243   105.68588    45.00000     0.41243
    20.80000   105.68479    45.00000     0.41278   105.68479    45.00000     0.41278
    20.90000   105.68356    45.00000     0.41312   105.68356    45.00000     0.41312
    21.00000   105.69601    45.00000     0.41370   105.69601    45.00000     0.41370
    21.10000   105.68068    45.00000     0.41381   105.68068    45.00000     0.41381
    21.20000   105.69259    45.56580     0.41439   105.69259    45.56580     0.41439
    21.30000   105.69072    44.43414     0.41473   105.69072    44.43414     0.41473
    21.40000   105.68871    44.43408     0.41508   105.68871    44.43408     0.41508
    21.50000   105.68657    44.43402     0.41543   105.68657    44.43402     0.41543
    21.60000   105.68428    44.43396     0.41577   105.68428    44.43396     0.41577
    21.70000   105.68186    44.43390     0.41612   105.68186    44.43390     0.41612
    21.80000   105.67940    45.00000     0.41646   105.67940    45.00000     0.41646
    21.90000   105.67670    45.00000     0.41681   105.67670    45.00000     0.41681
    22.00000   105.68674    45.00000     0.41739   105.68674    45.00000     0.41739
    22.10000   105.68368    45.00000     0.41774   105.68368    45.00000     0.41774
    22.20000   105.68049    45.00000     0.41809   105.68049    45.00000     0.41809
    22.30000   105.67716    45.00000     0.41844   105.67716    45.00000     0.41844
    22.40000   105.67369    45.00000     0.41878   105.67369    45.00000     0.41878
    22.50000   105.67000    45.58171     0.41913   105.67000    45.58171     0.41913
    22.60000   105.66626    45.58177     0.41948   105.66626    45.58177     0.41948
    22.70000   105.66238    44.41817     0.41983   105.66238    44.41817     0.41983
    22.80000   105.65837    44.41811     0.42018   105.65837    44.41811     0.42018
    22.90000   105.65422    44.41804     0.42053   105.65422    44.41804     0.42053
    23.00000   105.64993    44.41798     0.42088   105.64993    44.41798     0.42088
    23.10000   105.64560    45.00000     0.42123   105.64560    45.00000     0.42123
    23.20000   105.62923    45.00000     0.42134   105.62923    45.00000     0.42134
    23.30000   105.62463    45.00000     0.42169   105.62463    45.00000     0.42169
