 # applied field (T), theta (degree), phi (degree), abs [muB/unitcell], abs [T]
       0.00000000       0.00000000       0.00000000      37.42226327       1.30314664
       0.10000000       1.25804229     360.00000000      37.42221698       1.30314503
       0.20000000       2.45894074     360.00000000      37.42208711       1.30314051
       0.30000000       3.71701096     360.00000000      37.42186099       1.30313263
       0.40000000       4.97510966     360.00000000      37.42154391       1.30312159
       0.50000000       6.23324627     360.00000000      37.42113711       1.30310743
       0.60000000       7.49143004     360.00000000      37.42064223       1.30309019
       0.70000000       8.74967002     360.00000000      37.42006123       1.30306996
       0.80000000      10.00797498     360.00000000      37.41939641       1.30304681
       0.90000000      11.32352383     360.00000000      37.41861221       1.30301950
       1.00000000      12.58198782     360.00000000      37.41778418       1.30299067
       1.10000000      13.89772057     360.00000000      37.41683555       1.30295763
       1.20000000      15.21356001     360.00000000      37.41580852       1.30292187
       1.30000000      16.58670363     360.00000000      37.41465458       1.30288169
       1.40000000      17.95998067     360.00000000      37.41342465       1.30283886
       1.50000000      19.33339872     360.00000000      37.41212421       1.30279357
       1.60000000      20.70696466     360.00000000      37.41075903       1.30274603
       1.70000000      22.13789991     360.00000000      37.40927036       1.30269419
       1.80000000      23.56900872     360.00000000      37.40772435       1.30264036
       1.90000000      25.05752660     360.00000000      37.40605880       1.30258236
       2.00000000      26.60348160     360.00000000      37.40427528       1.30252025
       2.10000000      28.14965502     360.00000000      37.40245013       1.30245669
       2.20000000      29.75330552     360.00000000      37.40051835       1.30238942
       2.30000000      31.41446113     360.00000000      37.39848627       1.30231866
       2.40000000      33.13314952     360.00000000      37.39636215       1.30224469
       2.50000000      34.90939751     360.00000000      37.39415633       1.30216788
       2.60000000      36.74323051     360.00000000      37.39188110       1.30208865
       2.70000000      38.63467196     360.00000000      37.38955073       1.30200750
       2.80000000      40.64105793     360.00000000      37.38710717       1.30192241
       2.90000000      42.76243705     360.00000000      37.38457289       1.30183416
       3.00000000      45.05619055     360.00000000      37.38190456       1.30174124
       3.10000000      47.46504158     360.00000000      37.37920895       1.30164737
       3.20000000      50.04637823     360.00000000      37.37645832       1.30155159
       3.30000000      52.91498803     360.00000000      37.37358438       1.30145151
       3.40000000      56.07096631     360.00000000      37.37067248       1.30135011
       3.50000000      59.68654827     360.00000000      37.36767368       1.30124568
       3.60000000      63.93404255     360.00000000      37.36462903       1.30113966
       3.70000000      69.27282456     360.00000000      37.36153219       1.30103182
       3.80000000      77.08100135     360.00000000      37.35840041       1.30092276
       3.90000000      90.00000000     360.00000000      37.35660275       1.30086016
       4.00000000      90.00000000     360.00000000      37.35687130       1.30086951
       4.10000000      90.00000000     360.00000000      37.35713983       1.30087886
       4.20000000      90.00000000     360.00000000      37.35740834       1.30088821
       4.30000000      90.00000000     360.00000000      37.35767683       1.30089756
       4.40000000      90.00000000     360.00000000      37.35794529       1.30090691
       4.50000000      90.00000000     360.00000000      37.35821374       1.30091626
       4.60000000      90.00000000     360.00000000      37.35848216       1.30092561
       4.70000000      90.00000000     360.00000000      37.35875056       1.30093495
       4.80000000      90.00000000     360.00000000      37.35901894       1.30094430
       4.90000000      90.00000000     360.00000000      37.35928730       1.30095364
       5.00000000      90.00000000     360.00000000      37.35955563       1.30096299
       5.10000000      90.00000000     360.00000000      37.35982395       1.30097233
       5.20000000      90.00000000     360.00000000      37.36009224       1.30098167
       5.30000000      90.00000000     360.00000000      37.36036051       1.30099102
       5.40000000      90.00000000     360.00000000      37.36062875       1.30100036
       5.50000000      90.00000000     360.00000000      37.36089698       1.30100970
       5.60000000      90.00000000     360.00000000      37.36116519       1.30101904
       5.70000000      90.00000000     360.00000000      37.36143337       1.30102838
       5.80000000      90.00000000     360.00000000      37.36170153       1.30103771
       5.90000000      90.00000000     360.00000000      37.36196967       1.30104705
       6.00000000      90.00000000     360.00000000      37.36223779       1.30105639
       6.10000000      90.00000000     360.00000000      37.36250588       1.30106572
       6.20000000      90.00000000     360.00000000      37.36277396       1.30107506
       6.30000000      90.00000000     360.00000000      37.36304201       1.30108439
       6.40000000      90.00000000     360.00000000      37.36331004       1.30109373
       6.50000000      90.00000000     360.00000000      37.36357805       1.30110306
       6.60000000      90.00000000     360.00000000      37.36384604       1.30111239
       6.70000000      90.00000000     360.00000000      37.36411400       1.30112172
       6.80000000      90.00000000     360.00000000      37.36438195       1.30113105
       6.90000000      90.00000000     360.00000000      37.36464987       1.30114038
       7.00000000      90.00000000     360.00000000      37.36491777       1.30114971
       7.10000000      90.00000000     360.00000000      37.36518565       1.30115904
       7.20000000      90.00000000     360.00000000      37.36545351       1.30116837
       7.30000000      90.00000000     360.00000000      37.36572135       1.30117770
       7.40000000      90.00000000     360.00000000      37.36598916       1.30118702
       7.50000000      90.00000000     360.00000000      37.36625695       1.30119635
       7.60000000      90.00000000     360.00000000      37.36652473       1.30120567
       7.70000000      90.00000000     360.00000000      37.36679248       1.30121499
       7.80000000      90.00000000     360.00000000      37.36706021       1.30122432
       7.90000000      90.00000000     360.00000000      37.36732791       1.30123364
       8.00000000      90.00000000     360.00000000      37.36759560       1.30124296
       8.10000000      90.00000000     360.00000000      37.36786326       1.30125228
       8.20000000      90.00000000     360.00000000      37.36813091       1.30126160
       8.30000000      90.00000000     360.00000000      37.36839853       1.30127092
       8.40000000      90.00000000     360.00000000      37.36866613       1.30128024
       8.50000000      90.00000000     360.00000000      37.36893371       1.30128956
       8.60000000      90.00000000     360.00000000      37.36920126       1.30129888
       8.70000000      90.00000000     360.00000000      37.36946880       1.30130819
       8.80000000      90.00000000     360.00000000      37.36973631       1.30131751
       8.90000000      90.00000000     360.00000000      37.37000380       1.30132682
       9.00000000      90.00000000     360.00000000      37.37027128       1.30133614
       9.10000000      90.00000000     360.00000000      37.37053873       1.30134545
       9.20000000      90.00000000     360.00000000      37.37080615       1.30135476
       9.30000000      90.00000000     360.00000000      37.37107356       1.30136407
       9.40000000      90.00000000     360.00000000      37.37134095       1.30137339
       9.50000000      90.00000000     360.00000000      37.37160831       1.30138270
       9.60000000      90.00000000     360.00000000      37.37187565       1.30139201
       9.70000000      90.00000000     360.00000000      37.37214297       1.30140131
       9.80000000      90.00000000     360.00000000      37.37241027       1.30141062
       9.90000000      90.00000000     360.00000000      37.37267755       1.30141993
      10.00000000      90.00000000     360.00000000      37.37294481       1.30142924
      10.10000000      90.00000000     360.00000000      37.37321205       1.30143854
      10.20000000      90.00000000     360.00000000      37.37347926       1.30144785
      10.30000000      90.00000000     360.00000000      37.37374646       1.30145715
      10.40000000      90.00000000     360.00000000      37.37401363       1.30146646
      10.50000000      90.00000000     360.00000000      37.37428078       1.30147576
      10.60000000      90.00000000     360.00000000      37.37454791       1.30148506
      10.70000000      90.00000000     360.00000000      37.37481502       1.30149436
      10.80000000      90.00000000     360.00000000      37.37508210       1.30150366
      10.90000000      90.00000000     360.00000000      37.37534917       1.30151296
      11.00000000      90.00000000     360.00000000      37.37561621       1.30152226
      11.10000000      90.00000000     360.00000000      37.37588324       1.30153156
      11.20000000      90.00000000     360.00000000      37.37615024       1.30154086
      11.30000000      90.00000000     360.00000000      37.37641722       1.30155015
      11.40000000      90.00000000     360.00000000      37.37668418       1.30155945
      11.50000000      90.00000000     360.00000000      37.37695112       1.30156875
      11.60000000      90.00000000     360.00000000      37.37721804       1.30157804
      11.70000000      90.00000000     360.00000000      37.37748493       1.30158734
      11.80000000      90.00000000     360.00000000      37.37775181       1.30159663
      11.90000000      90.00000000     360.00000000      37.37801866       1.30160592
      12.00000000      90.00000000     360.00000000      37.37828549       1.30161521
      12.10000000      90.00000000     360.00000000      37.37855231       1.30162450
      12.20000000      90.00000000     360.00000000      37.37881910       1.30163379
      12.30000000      90.00000000     360.00000000      37.37908587       1.30164308
      12.40000000      90.00000000     360.00000000      37.37935261       1.30165237
      12.50000000      90.00000000     360.00000000      37.37961934       1.30166166
      12.60000000      90.00000000     360.00000000      37.37988605       1.30167095
      12.70000000      90.00000000     360.00000000      37.38015273       1.30168024
      12.80000000      90.00000000     360.00000000      37.38041939       1.30168952
      12.90000000      90.00000000     360.00000000      37.38068604       1.30169881
      13.00000000      90.00000000     360.00000000      37.38095266       1.30170809
      13.10000000      90.00000000     360.00000000      37.38121926       1.30171738
      13.20000000      90.00000000     360.00000000      37.38148584       1.30172666
      13.30000000      90.00000000     360.00000000      37.38175240       1.30173594
      13.40000000      90.00000000     360.00000000      37.38201894       1.30174522
      13.50000000      90.00000000     360.00000000      37.38228545       1.30175450
      13.60000000      90.00000000     360.00000000      37.38255195       1.30176378
      13.70000000      90.00000000     360.00000000      37.38281842       1.30177306
      13.80000000      90.00000000     360.00000000      37.38308488       1.30178234
      13.90000000      90.00000000     360.00000000      37.38335131       1.30179162
      14.00000000      90.00000000     360.00000000      37.38361772       1.30180090
      14.10000000      90.00000000     360.00000000      37.38388411       1.30181017
      14.20000000      90.00000000     360.00000000      37.38415048       1.30181945
      14.30000000      90.00000000     360.00000000      37.38441683       1.30182872
      14.40000000      90.00000000     360.00000000      37.38468316       1.30183800
      14.50000000      90.00000000     360.00000000      37.38494946       1.30184727
      14.60000000      90.00000000     360.00000000      37.38521575       1.30185654
      14.70000000      90.00000000     360.00000000      37.38548201       1.30186582
      14.80000000      90.00000000     360.00000000      37.38574826       1.30187509
      14.90000000      90.00000000     360.00000000      37.38601448       1.30188436
      15.00000000      90.00000000     360.00000000      37.38628068       1.30189363
      15.10000000      90.00000000     360.00000000      37.38654687       1.30190290
      15.20000000      90.00000000     360.00000000      37.38681303       1.30191217
      15.30000000      90.00000000     360.00000000      37.38707917       1.30192143
      15.40000000      90.00000000     360.00000000      37.38734528       1.30193070
      15.50000000      90.00000000     360.00000000      37.38761138       1.30193997
      15.60000000      90.00000000     360.00000000      37.38787746       1.30194923
      15.70000000      90.00000000     360.00000000      37.38814352       1.30195850
      15.80000000      90.00000000     360.00000000      37.38840955       1.30196776
      15.90000000      90.00000000     360.00000000      37.38867557       1.30197702
      16.00000000      90.00000000     360.00000000      37.38894156       1.30198629
      16.10000000      90.00000000     360.00000000      37.38920753       1.30199555
      16.20000000      90.00000000     360.00000000      37.38947349       1.30200481
      16.30000000      90.00000000     360.00000000      37.38973942       1.30201407
      16.40000000      90.00000000     360.00000000      37.39000533       1.30202333
      16.50000000      90.00000000     360.00000000      37.39027122       1.30203259
      16.60000000      90.00000000     360.00000000      37.39053709       1.30204185
      16.70000000      90.00000000     360.00000000      37.39080294       1.30205111
      16.80000000      90.00000000     360.00000000      37.39106877       1.30206036
      16.90000000      90.00000000     360.00000000      37.39133457       1.30206962
      17.00000000      90.00000000     360.00000000      37.39160036       1.30207887
      17.10000000      90.00000000     360.00000000      37.39186613       1.30208813
      17.20000000      90.00000000     360.00000000      37.39213187       1.30209738
      17.30000000      90.00000000     360.00000000      37.39239760       1.30210664
      17.40000000      90.00000000     360.00000000      37.39266330       1.30211589
      17.50000000      90.00000000     360.00000000      37.39292898       1.30212514
      17.60000000      90.00000000     360.00000000      37.39319465       1.30213439
      17.70000000      90.00000000     360.00000000      37.39346029       1.30214364
      17.80000000      90.00000000     360.00000000      37.39372591       1.30215289
      17.90000000      90.00000000     360.00000000      37.39399151       1.30216214
      18.00000000      90.00000000     360.00000000      37.39425709       1.30217139
      18.10000000      90.00000000     360.00000000      37.39452265       1.30218064
      18.20000000      90.00000000     360.00000000      37.39478819       1.30218988
      18.30000000      90.00000000     360.00000000      37.39505371       1.30219913
      18.40000000      90.00000000     360.00000000      37.39531920       1.30220837
      18.50000000      90.00000000     360.00000000      37.39558468       1.30221762
      18.60000000      90.00000000     360.00000000      37.39585014       1.30222686
      18.70000000      90.00000000     360.00000000      37.39611557       1.30223611
      18.80000000      90.00000000     360.00000000      37.39638099       1.30224535
      18.90000000      90.00000000     360.00000000      37.39664639       1.30225459
      19.00000000      90.00000000     360.00000000      37.39691176       1.30226383
      19.10000000      90.00000000     360.00000000      37.39717711       1.30227307
      19.20000000      90.00000000     360.00000000      37.39744245       1.30228231
      19.30000000      90.00000000     360.00000000      37.39770776       1.30229155
      19.40000000      90.00000000     360.00000000      37.39797305       1.30230079
      19.50000000      90.00000000     360.00000000      37.39823833       1.30231003
      19.60000000      90.00000000     360.00000000      37.39850358       1.30231926
      19.70000000      90.00000000     360.00000000      37.39876881       1.30232850
      19.80000000      90.00000000     360.00000000      37.39903402       1.30233773
      19.90000000      90.00000000     360.00000000      37.39929921       1.30234697
      20.00000000      90.00000000     360.00000000      37.39956438       1.30235620
      20.10000000      90.00000000     360.00000000      37.39982953       1.30236544
      20.20000000      90.00000000     360.00000000      37.40009466       1.30237467
      20.30000000      90.00000000     360.00000000      37.40035977       1.30238390
      20.40000000      90.00000000     360.00000000      37.40062485       1.30239313
      20.50000000      90.00000000     360.00000000      37.40088992       1.30240236
      20.60000000      90.00000000     360.00000000      37.40115497       1.30241159
      20.70000000      90.00000000     360.00000000      37.40142000       1.30242082
      20.80000000      90.00000000     360.00000000      37.40168500       1.30243005
      20.90000000      90.00000000     360.00000000      37.40194999       1.30243928
      21.00000000      90.00000000     360.00000000      37.40221496       1.30244850
      21.10000000      90.00000000     360.00000000      37.40247990       1.30245773
      21.20000000      90.00000000     360.00000000      37.40274483       1.30246695
      21.30000000      90.00000000     360.00000000      37.40300973       1.30247618
      21.40000000      90.00000000     360.00000000      37.40327462       1.30248540
      21.50000000      90.00000000     360.00000000      37.40353948       1.30249463
      21.60000000      90.00000000     360.00000000      37.40380433       1.30250385
      21.70000000      90.00000000     360.00000000      37.40406915       1.30251307
      21.80000000      90.00000000     360.00000000      37.40433395       1.30252229
      21.90000000      90.00000000     360.00000000      37.40459874       1.30253151
      22.00000000      90.00000000     360.00000000      37.40486350       1.30254073
      22.10000000      90.00000000     360.00000000      37.40512824       1.30254995
      22.20000000      90.00000000     360.00000000      37.40539297       1.30255917
      22.30000000      90.00000000     360.00000000      37.40565767       1.30256839
      22.40000000      90.00000000     360.00000000      37.40592235       1.30257761
      22.50000000      90.00000000     360.00000000      37.40618701       1.30258682
      22.60000000      90.00000000     360.00000000      37.40645165       1.30259604
      22.70000000      90.00000000     360.00000000      37.40671628       1.30260525
      22.80000000      90.00000000     360.00000000      37.40698088       1.30261447
      22.90000000      90.00000000     360.00000000      37.40724546       1.30262368
      23.00000000      90.00000000     360.00000000      37.40751002       1.30263289
