 # applied field (T), theta (degree), phi (degree), abs [muB/unitcell], abs [T]
       0.00000000       0.00000000       0.00000000      43.66558075       1.50250823
       0.10000000       0.85716682     360.00000000      43.66555057       1.50250719
       0.20000000       1.71433746     360.00000000      43.66546008       1.50250407
       0.30000000       2.62862124     360.00000000      43.66529655       1.50249845
       0.40000000       3.48581184     360.00000000      43.66508183       1.50249106
       0.50000000       4.34301788     360.00000000      43.66480766       1.50248163
       0.60000000       5.20024310     360.00000000      43.66447453       1.50247016
       0.70000000       6.11460207     360.00000000      43.66405313       1.50245566
       0.80000000       6.97187863     360.00000000      43.66359990       1.50244007
       0.90000000       7.82918554     360.00000000      43.66308987       1.50242252
       1.00000000       8.74364401     360.00000000      43.66248178       1.50240159
       1.10000000       9.60102483     360.00000000      43.66185710       1.50238010
       1.20000000      10.51557010     360.00000000      43.66112866       1.50235503
       1.30000000      11.43016616     360.00000000      43.66034006       1.50232790
       1.40000000      12.34481691     360.00000000      43.65949289       1.50229875
       1.50000000      13.20239169     360.00000000      43.65865046       1.50226976
       1.60000000      14.11715887     360.00000000      43.65769496       1.50223688
       1.70000000      15.08913430     360.00000000      43.65661740       1.50219980
       1.80000000      16.00404011     360.00000000      43.65555389       1.50216321
       1.90000000      16.91901802     360.00000000      43.65444126       1.50212492
       2.00000000      17.89122853     360.00000000      43.65320303       1.50208232
       2.10000000      18.80636468     360.00000000      43.65199581       1.50204078
       2.20000000      19.77874991     360.00000000      43.65066174       1.50199487
       2.30000000      20.75122976     360.00000000      43.64928237       1.50194741
       2.40000000      21.78098745     360.00000000      43.64777041       1.50189538
       2.50000000      22.75367072     360.00000000      43.64630685       1.50184502
       2.60000000      23.78364962     360.00000000      43.64471210       1.50179015
       2.70000000      24.81374607     360.00000000      43.64308006       1.50173399
       2.80000000      25.84396216     360.00000000      43.64141447       1.50167668
       2.90000000      26.93151419     360.00000000      43.63961797       1.50161486
       3.00000000      27.96198168     360.00000000      43.63789506       1.50155558
       3.10000000      29.10703213     360.00000000      43.63594189       1.50148837
       3.20000000      30.19500031     360.00000000      43.63407124       1.50142400
       3.30000000      31.34035422     360.00000000      43.63207843       1.50135543
       3.40000000      32.48586442     360.00000000      43.63007277       1.50128642
       3.50000000      33.68879268     360.00000000      43.62795175       1.50121343
       3.60000000      34.94916375     360.00000000      43.62571965       1.50113663
       3.70000000      36.15244273     360.00000000      43.62359778       1.50106362
       3.80000000      37.47046686     360.00000000      43.62126913       1.50098349
       3.90000000      38.78869154     360.00000000      43.61895629       1.50090391
       4.00000000      40.16441977     360.00000000      43.61656011       1.50082145
       4.10000000      41.59767422     360.00000000      43.61409073       1.50073648
       4.20000000      43.03115099     360.00000000      43.61166270       1.50065294
       4.30000000      44.57951244     360.00000000      43.60908148       1.50056412
       4.40000000      46.18546134     360.00000000      43.60646623       1.50047413
       4.50000000      47.84901459     360.00000000      43.60383292       1.50038352
       4.60000000      49.62755036     360.00000000      43.60110642       1.50028970
       4.70000000      51.46373513     360.00000000      43.59840443       1.50019673
       4.80000000      53.47234150     360.00000000      43.59557841       1.50009949
       4.90000000      55.59603569     360.00000000      43.59275615       1.50000237
       5.00000000      57.89224172     360.00000000      43.58990165       1.49990415
       5.10000000      60.47582039     360.00000000      43.58693689       1.49980214
       5.20000000      63.28943153     360.00000000      43.58402357       1.49970189
       5.30000000      66.56281462     360.00000000      43.58103840       1.49959917
       5.40000000      70.46836900     360.00000000      43.57804366       1.49949612
       5.50000000      75.52317011     360.00000000      43.57505173       1.49939317
       5.60000000      84.48485932     360.00000000      43.57203024       1.49928921
       5.70000000      90.00000000     360.00000000      43.57173300       1.49927898
       5.80000000      90.00000000     360.00000000      43.57197797       1.49928741
       5.90000000      90.00000000     360.00000000      43.57222293       1.49929584
       6.00000000      90.00000000     360.00000000      43.57246786       1.49930426
       6.10000000      90.00000000     360.00000000      43.57271277       1.49931269
       6.20000000      90.00000000     360.00000000      43.57295766       1.49932112
       6.30000000      90.00000000     360.00000000      43.57320253       1.49932954
       6.40000000      90.00000000     360.00000000      43.57344737       1.49933797
       6.50000000      90.00000000     360.00000000      43.57369219       1.49934639
       6.60000000      90.00000000     360.00000000      43.57393699       1.49935482
       6.70000000      90.00000000     360.00000000      43.57418177       1.49936324
       6.80000000      90.00000000     360.00000000      43.57442652       1.49937166
       6.90000000      90.00000000     360.00000000      43.57467125       1.49938008
       7.00000000      90.00000000     360.00000000      43.57491596       1.49938850
       7.10000000      90.00000000     360.00000000      43.57516065       1.49939692
       7.20000000      90.00000000     360.00000000      43.57540531       1.49940534
       7.30000000      90.00000000     360.00000000      43.57564995       1.49941376
       7.40000000      90.00000000     360.00000000      43.57589457       1.49942218
       7.50000000      90.00000000     360.00000000      43.57613916       1.49943059
       7.60000000      90.00000000     360.00000000      43.57638374       1.49943901
       7.70000000      90.00000000     360.00000000      43.57662829       1.49944742
       7.80000000      90.00000000     360.00000000      43.57687282       1.49945584
       7.90000000      90.00000000     360.00000000      43.57711732       1.49946425
       8.00000000      90.00000000     360.00000000      43.57736181       1.49947266
       8.10000000      90.00000000     360.00000000      43.57760627       1.49948107
       8.20000000      90.00000000     360.00000000      43.57785071       1.49948949
       8.30000000      90.00000000     360.00000000      43.57809513       1.49949790
       8.40000000      90.00000000     360.00000000      43.57833952       1.49950631
       8.50000000      90.00000000     360.00000000      43.57858389       1.49951471
       8.60000000      90.00000000     360.00000000      43.57882824       1.49952312
       8.70000000      90.00000000     360.00000000      43.57907257       1.49953153
       8.80000000      90.00000000     360.00000000      43.57931688       1.49953994
       8.90000000      90.00000000     360.00000000      43.57956116       1.49954834
       9.00000000      90.00000000     360.00000000      43.57980542       1.49955675
       9.10000000      90.00000000     360.00000000      43.58004966       1.49956515
       9.20000000      90.00000000     360.00000000      43.58029387       1.49957355
       9.30000000      90.00000000     360.00000000      43.58053807       1.49958196
       9.40000000      90.00000000     360.00000000      43.58078224       1.49959036
       9.50000000      90.00000000     360.00000000      43.58102639       1.49959876
       9.60000000      90.00000000     360.00000000      43.58127052       1.49960716
       9.70000000      90.00000000     360.00000000      43.58151462       1.49961556
       9.80000000      90.00000000     360.00000000      43.58175870       1.49962396
       9.90000000      90.00000000     360.00000000      43.58200276       1.49963236
      10.00000000      90.00000000     360.00000000      43.58224680       1.49964075
      10.10000000      90.00000000     360.00000000      43.58249082       1.49964915
      10.20000000      90.00000000     360.00000000      43.58273481       1.49965754
      10.30000000      90.00000000     360.00000000      43.58297878       1.49966594
      10.40000000      90.00000000     360.00000000      43.58322273       1.49967433
      10.50000000      90.00000000     360.00000000      43.58346666       1.49968273
      10.60000000      90.00000000     360.00000000      43.58371056       1.49969112
      10.70000000      90.00000000     360.00000000      43.58395445       1.49969951
      10.80000000      90.00000000     360.00000000      43.58419831       1.49970790
      10.90000000      90.00000000     360.00000000      43.58444215       1.49971629
      11.00000000      90.00000000     360.00000000      43.58468596       1.49972468
      11.10000000      90.00000000     360.00000000      43.58492976       1.49973307
      11.20000000      90.00000000     360.00000000      43.58517353       1.49974146
      11.30000000      90.00000000     360.00000000      43.58541728       1.49974985
      11.40000000      90.00000000     360.00000000      43.58566101       1.49975823
      11.50000000      90.00000000     360.00000000      43.58590471       1.49976662
      11.60000000      90.00000000     360.00000000      43.58614840       1.49977500
      11.70000000      90.00000000     360.00000000      43.58639206       1.49978339
      11.80000000      90.00000000     360.00000000      43.58663570       1.49979177
      11.90000000      90.00000000     360.00000000      43.58687931       1.49980015
      12.00000000      90.00000000     360.00000000      43.58712291       1.49980854
      12.10000000      90.00000000     360.00000000      43.58736648       1.49981692
      12.20000000      90.00000000     360.00000000      43.58761003       1.49982530
      12.30000000      90.00000000     360.00000000      43.58785356       1.49983368
      12.40000000      90.00000000     360.00000000      43.58809707       1.49984206
      12.50000000      90.00000000     360.00000000      43.58834056       1.49985044
      12.60000000      90.00000000     360.00000000      43.58858402       1.49985881
      12.70000000      90.00000000     360.00000000      43.58882746       1.49986719
      12.80000000      90.00000000     360.00000000      43.58907088       1.49987557
      12.90000000      90.00000000     360.00000000      43.58931428       1.49988394
      13.00000000      90.00000000     360.00000000      43.58955765       1.49989231
      13.10000000      90.00000000     360.00000000      43.58980100       1.49990069
      13.20000000      90.00000000     360.00000000      43.59004434       1.49990906
      13.30000000      90.00000000     360.00000000      43.59028765       1.49991743
      13.40000000      90.00000000     360.00000000      43.59053093       1.49992580
      13.50000000      90.00000000     360.00000000      43.59077420       1.49993418
      13.60000000      90.00000000     360.00000000      43.59101744       1.49994255
      13.70000000      90.00000000     360.00000000      43.59126066       1.49995091
      13.80000000      90.00000000     360.00000000      43.59150386       1.49995928
      13.90000000      90.00000000     360.00000000      43.59174704       1.49996765
      14.00000000      90.00000000     360.00000000      43.59199020       1.49997602
      14.10000000      90.00000000     360.00000000      43.59223333       1.49998438
      14.20000000      90.00000000     360.00000000      43.59247644       1.49999275
      14.30000000      90.00000000     360.00000000      43.59271953       1.50000111
      14.40000000      90.00000000     360.00000000      43.59296260       1.50000948
      14.50000000      90.00000000     360.00000000      43.59320565       1.50001784
      14.60000000      90.00000000     360.00000000      43.59344867       1.50002620
      14.70000000      90.00000000     360.00000000      43.59369168       1.50003456
      14.80000000      90.00000000     360.00000000      43.59393466       1.50004293
      14.90000000      90.00000000     360.00000000      43.59417762       1.50005129
      15.00000000      90.00000000     360.00000000      43.59442055       1.50005964
      15.10000000      90.00000000     360.00000000      43.59466347       1.50006800
      15.20000000      90.00000000     360.00000000      43.59490636       1.50007636
      15.30000000      90.00000000     360.00000000      43.59514924       1.50008472
      15.40000000      90.00000000     360.00000000      43.59539209       1.50009307
      15.50000000      90.00000000     360.00000000      43.59563491       1.50010143
      15.60000000      90.00000000     360.00000000      43.59587772       1.50010978
      15.70000000      90.00000000     360.00000000      43.59612051       1.50011814
      15.80000000      90.00000000     360.00000000      43.59636327       1.50012649
      15.90000000      90.00000000     360.00000000      43.59660601       1.50013484
      16.00000000      90.00000000     360.00000000      43.59684873       1.50014320
      16.10000000      90.00000000     360.00000000      43.59709143       1.50015155
      16.20000000      90.00000000     360.00000000      43.59733411       1.50015990
      16.30000000      90.00000000     360.00000000      43.59757676       1.50016825
      16.40000000      90.00000000     360.00000000      43.59781939       1.50017660
      16.50000000      90.00000000     360.00000000      43.59806200       1.50018494
      16.60000000      90.00000000     360.00000000      43.59830459       1.50019329
      16.70000000      90.00000000     360.00000000      43.59854716       1.50020164
      16.80000000      90.00000000     360.00000000      43.59878971       1.50020998
      16.90000000      90.00000000     360.00000000      43.59903223       1.50021833
      17.00000000      90.00000000     360.00000000      43.59927474       1.50022667
      17.10000000      90.00000000     360.00000000      43.59951722       1.50023502
      17.20000000      90.00000000     360.00000000      43.59975968       1.50024336
      17.30000000      90.00000000     360.00000000      43.60000212       1.50025170
      17.40000000      90.00000000     360.00000000      43.60024453       1.50026004
      17.50000000      90.00000000     360.00000000      43.60048693       1.50026838
      17.60000000      90.00000000     360.00000000      43.60072930       1.50027672
      17.70000000      90.00000000     360.00000000      43.60097165       1.50028506
      17.80000000      90.00000000     360.00000000      43.60121398       1.50029340
      17.90000000      90.00000000     360.00000000      43.60145629       1.50030174
      18.00000000      90.00000000     360.00000000      43.60169858       1.50031008
      18.10000000      90.00000000     360.00000000      43.60194084       1.50031841
      18.20000000      90.00000000     360.00000000      43.60218309       1.50032675
      18.30000000      90.00000000     360.00000000      43.60242531       1.50033508
      18.40000000      90.00000000     360.00000000      43.60266751       1.50034342
      18.50000000      90.00000000     360.00000000      43.60290969       1.50035175
      18.60000000      90.00000000     360.00000000      43.60315185       1.50036008
      18.70000000      90.00000000     360.00000000      43.60339399       1.50036842
      18.80000000      90.00000000     360.00000000      43.60363610       1.50037675
      18.90000000      90.00000000     360.00000000      43.60387819       1.50038508
      19.00000000      90.00000000     360.00000000      43.60412027       1.50039341
      19.10000000      90.00000000     360.00000000      43.60436232       1.50040173
      19.20000000      90.00000000     360.00000000      43.60460435       1.50041006
      19.30000000      90.00000000     360.00000000      43.60484635       1.50041839
      19.40000000      90.00000000     360.00000000      43.60508834       1.50042672
      19.50000000      90.00000000     360.00000000      43.60533030       1.50043504
      19.60000000      90.00000000     360.00000000      43.60557225       1.50044337
      19.70000000      90.00000000     360.00000000      43.60581417       1.50045169
      19.80000000      90.00000000     360.00000000      43.60605607       1.50046002
      19.90000000      90.00000000     360.00000000      43.60629795       1.50046834
      20.00000000      90.00000000     360.00000000      43.60653981       1.50047666
      20.10000000      90.00000000     360.00000000      43.60678164       1.50048498
      20.20000000      90.00000000     360.00000000      43.60702346       1.50049330
      20.30000000      90.00000000     360.00000000      43.60726525       1.50050162
      20.40000000      90.00000000     360.00000000      43.60750702       1.50050994
      20.50000000      90.00000000     360.00000000      43.60774878       1.50051826
      20.60000000      90.00000000     360.00000000      43.60799050       1.50052658
      20.70000000      90.00000000     360.00000000      43.60823221       1.50053490
      20.80000000      90.00000000     360.00000000      43.60847390       1.50054321
      20.90000000      90.00000000     360.00000000      43.60871557       1.50055153
      21.00000000      90.00000000     360.00000000      43.60895721       1.50055984
      21.10000000      90.00000000     360.00000000      43.60919883       1.50056816
      21.20000000      90.00000000     360.00000000      43.60944043       1.50057647
      21.30000000      90.00000000     360.00000000      43.60968201       1.50058478
      21.40000000      90.00000000     360.00000000      43.60992357       1.50059309
      21.50000000      90.00000000     360.00000000      43.61016511       1.50060141
      21.60000000      90.00000000     360.00000000      43.61040663       1.50060972
      21.70000000      90.00000000     360.00000000      43.61064812       1.50061803
      21.80000000      90.00000000     360.00000000      43.61088960       1.50062634
      21.90000000      90.00000000     360.00000000      43.61113105       1.50063464
      22.00000000      90.00000000     360.00000000      43.61137248       1.50064295
      22.10000000      90.00000000     360.00000000      43.61161389       1.50065126
      22.20000000      90.00000000     360.00000000      43.61185528       1.50065956
      22.30000000      90.00000000     360.00000000      43.61209665       1.50066787
      22.40000000      90.00000000     360.00000000      43.61233800       1.50067617
      22.50000000      90.00000000     360.00000000      43.61257932       1.50068448
      22.60000000      90.00000000     360.00000000      43.61282063       1.50069278
      22.70000000      90.00000000     360.00000000      43.61306191       1.50070108
      22.80000000      90.00000000     360.00000000      43.61330317       1.50070938
      22.90000000      90.00000000     360.00000000      43.61354441       1.50071769
      23.00000000      90.00000000     360.00000000      43.61378563       1.50072599
