 # applied field (T), theta (degree), phi (degree), abs [muB/unitcell], abs [T]
       0.00000000       0.00000000       0.00000000      34.70673077       1.16817076
       0.10000000       3.43848212      45.00000000      34.70650566       1.16816318
       0.20000000       6.99176990      45.00000000      34.70581601       1.16813997
       0.30000000      90.00000000      15.56977966      34.72212371       1.16868886
       0.40000000      90.00000000      20.76121069      34.72066993       1.16863993
       0.50000000      90.00000000      64.04629004      34.71914810       1.16858871
       0.60000000      90.00000000      57.12142145      34.71732398       1.16852731
       0.70000000      90.00000000      45.00000000      34.71592522       1.16848023
       0.80000000      90.00000000      45.00000000      34.71615596       1.16848800
       0.90000000      90.00000000      45.00000000      34.71638668       1.16849576
       1.00000000      90.00000000      45.00000000      34.71661738       1.16850353
       1.10000000      90.00000000      45.00000000      34.71684805       1.16851129
       1.20000000      90.00000000      45.00000000      34.71707870       1.16851905
       1.30000000      90.00000000      45.00000000      34.71730933       1.16852682
       1.40000000      90.00000000      45.00000000      34.71753994       1.16853458
       1.50000000      90.00000000      45.00000000      34.71777053       1.16854234
       1.60000000      90.00000000      45.00000000      34.71800109       1.16855010
       1.70000000      90.00000000      45.00000000      34.71823163       1.16855786
       1.80000000      90.00000000      45.00000000      34.71846215       1.16856562
       1.90000000      90.00000000      45.00000000      34.71869265       1.16857338
       2.00000000      90.00000000      45.00000000      34.71892312       1.16858113
       2.10000000      90.00000000      45.00000000      34.71915357       1.16858889
       2.20000000      90.00000000      45.00000000      34.71938401       1.16859665
       2.30000000      90.00000000      45.00000000      34.71961441       1.16860440
       2.40000000      90.00000000      45.00000000      34.71984480       1.16861216
       2.50000000      90.00000000      45.00000000      34.72007516       1.16861991
       2.60000000      90.00000000      45.00000000      34.72030550       1.16862766
       2.70000000      90.00000000      45.00000000      34.72053582       1.16863542
       2.80000000      90.00000000      45.00000000      34.72076612       1.16864317
       2.90000000      90.00000000      45.00000000      34.72099640       1.16865092
       3.00000000      90.00000000      45.00000000      34.72122665       1.16865867
       3.10000000      90.00000000      45.00000000      34.72145688       1.16866642
       3.20000000      90.00000000      45.00000000      34.72168709       1.16867416
       3.30000000      90.00000000      45.00000000      34.72191727       1.16868191
       3.40000000      90.00000000      45.00000000      34.72214744       1.16868966
       3.50000000      90.00000000      45.00000000      34.72237758       1.16869741
       3.60000000      90.00000000      45.00000000      34.72260770       1.16870515
       3.70000000      90.00000000      45.00000000      34.72283780       1.16871290
       3.80000000      90.00000000      45.00000000      34.72306788       1.16872064
       3.90000000      90.00000000      45.00000000      34.72329793       1.16872838
       4.00000000      90.00000000      45.00000000      34.72352796       1.16873613
       4.10000000      90.00000000      45.00000000      34.72375797       1.16874387
       4.20000000      90.00000000      45.00000000      34.72398796       1.16875161
       4.30000000      90.00000000      45.00000000      34.72421793       1.16875935
       4.40000000      90.00000000      45.00000000      34.72444787       1.16876709
       4.50000000      90.00000000      45.00000000      34.72467779       1.16877483
       4.60000000      90.00000000      45.00000000      34.72490769       1.16878256
       4.70000000      90.00000000      45.00000000      34.72513757       1.16879030
       4.80000000      90.00000000      45.00000000      34.72536742       1.16879804
       4.90000000      90.00000000      45.00000000      34.72559726       1.16880577
       5.00000000      90.00000000      45.00000000      34.72582707       1.16881351
       5.10000000      90.00000000      45.00000000      34.72605686       1.16882124
       5.20000000      90.00000000      45.00000000      34.72628663       1.16882898
       5.30000000      90.00000000      45.00000000      34.72651637       1.16883671
       5.40000000      90.00000000      45.00000000      34.72674610       1.16884444
       5.50000000      90.00000000      45.00000000      34.72697580       1.16885217
       5.60000000      90.00000000      45.00000000      34.72720548       1.16885990
       5.70000000      90.00000000      45.00000000      34.72743514       1.16886763
       5.80000000      90.00000000      45.00000000      34.72766478       1.16887536
       5.90000000      90.00000000      45.00000000      34.72789439       1.16888309
       6.00000000      90.00000000      45.00000000      34.72812398       1.16889082
       6.10000000      90.00000000      45.00000000      34.72835355       1.16889855
       6.20000000      90.00000000      45.00000000      34.72858310       1.16890627
       6.30000000      90.00000000      45.00000000      34.72881263       1.16891400
       6.40000000      90.00000000      45.00000000      34.72904213       1.16892172
       6.50000000      90.00000000      45.00000000      34.72927162       1.16892945
       6.60000000      90.00000000      45.00000000      34.72950108       1.16893717
       6.70000000      90.00000000      45.00000000      34.72973052       1.16894489
       6.80000000      90.00000000      45.00000000      34.72995994       1.16895262
       6.90000000      90.00000000      45.00000000      34.73018933       1.16896034
       7.00000000      90.00000000      45.00000000      34.73041871       1.16896806
       7.10000000      90.00000000      45.00000000      34.73064806       1.16897578
       7.20000000      90.00000000      45.00000000      34.73087739       1.16898350
       7.30000000      90.00000000      45.00000000      34.73110670       1.16899121
       7.40000000      90.00000000      45.00000000      34.73133599       1.16899893
       7.50000000      90.00000000      45.00000000      34.73156525       1.16900665
       7.60000000      90.00000000      45.00000000      34.73179450       1.16901436
       7.70000000      90.00000000      45.00000000      34.73202372       1.16902208
       7.80000000      90.00000000      45.00000000      34.73225292       1.16902979
       7.90000000      90.00000000      45.00000000      34.73248210       1.16903751
       8.00000000      90.00000000      45.00000000      34.73271125       1.16904522
       8.10000000      90.00000000      45.00000000      34.73294039       1.16905293
       8.20000000      90.00000000      45.00000000      34.73316950       1.16906064
       8.30000000      90.00000000      45.00000000      34.73339859       1.16906835
       8.40000000      90.00000000      45.00000000      34.73362766       1.16907606
       8.50000000      90.00000000      45.00000000      34.73385671       1.16908377
       8.60000000      90.00000000      45.00000000      34.73408574       1.16909148
       8.70000000      90.00000000      45.00000000      34.73431474       1.16909919
       8.80000000      90.00000000      45.00000000      34.73454372       1.16910690
       8.90000000      90.00000000      45.00000000      34.73477269       1.16911460
       9.00000000      90.00000000      45.00000000      34.73500163       1.16912231
       9.10000000      90.00000000      45.00000000      34.73523054       1.16913002
       9.20000000      90.00000000      45.00000000      34.73545944       1.16913772
       9.30000000      90.00000000      45.00000000      34.73568832       1.16914542
       9.40000000      90.00000000      45.00000000      34.73591717       1.16915313
       9.50000000      90.00000000      45.00000000      34.73614600       1.16916083
       9.60000000      90.00000000      45.00000000      34.73637481       1.16916853
       9.70000000      90.00000000      45.00000000      34.73660360       1.16917623
       9.80000000      90.00000000      45.00000000      34.73683237       1.16918393
       9.90000000      90.00000000      45.00000000      34.73706111       1.16919163
      10.00000000      90.00000000      45.00000000      34.73728984       1.16919933
      10.10000000      90.00000000      45.00000000      34.73751854       1.16920703
      10.20000000      90.00000000      45.00000000      34.73774722       1.16921472
      10.30000000      90.00000000      45.00000000      34.73797588       1.16922242
      10.40000000      90.00000000      45.00000000      34.73820452       1.16923011
      10.50000000      90.00000000      45.00000000      34.73843313       1.16923781
      10.60000000      90.00000000      45.00000000      34.73866173       1.16924550
      10.70000000      90.00000000      45.00000000      34.73889030       1.16925320
      10.80000000      90.00000000      45.00000000      34.73911885       1.16926089
      10.90000000      90.00000000      45.00000000      34.73934738       1.16926858
      11.00000000      90.00000000      45.00000000      34.73957589       1.16927627
      11.10000000      90.00000000      45.00000000      34.73980438       1.16928396
      11.20000000      90.00000000      45.00000000      34.74003285       1.16929165
      11.30000000      90.00000000      45.00000000      34.74026129       1.16929934
      11.40000000      90.00000000      45.00000000      34.74048971       1.16930703
      11.50000000      90.00000000      45.00000000      34.74071812       1.16931472
      11.60000000      90.00000000      45.00000000      34.74094650       1.16932240
      11.70000000      90.00000000      45.00000000      34.74117485       1.16933009
      11.80000000      90.00000000      45.00000000      34.74140319       1.16933778
      11.90000000      90.00000000      45.00000000      34.74163151       1.16934546
      12.00000000      90.00000000      45.00000000      34.74185980       1.16935314
      12.10000000      90.00000000      45.00000000      34.74208808       1.16936083
      12.20000000      90.00000000      45.00000000      34.74231633       1.16936851
      12.30000000      90.00000000      45.00000000      34.74254456       1.16937619
      12.40000000      90.00000000      45.00000000      34.74277277       1.16938387
      12.50000000      90.00000000      45.00000000      34.74300095       1.16939155
      12.60000000      90.00000000      45.00000000      34.74322912       1.16939923
      12.70000000      90.00000000      45.00000000      34.74345727       1.16940691
      12.80000000      90.00000000      45.00000000      34.74368539       1.16941459
      12.90000000      90.00000000      45.00000000      34.74391349       1.16942227
      13.00000000      90.00000000      45.00000000      34.74414157       1.16942995
      13.10000000      90.00000000      45.00000000      34.74436963       1.16943762
      13.20000000      90.00000000      45.00000000      34.74459767       1.16944530
      13.30000000      90.00000000      45.00000000      34.74482569       1.16945297
      13.40000000      90.00000000      45.00000000      34.74505368       1.16946065
      13.50000000      90.00000000      45.00000000      34.74528166       1.16946832
      13.60000000      90.00000000      45.00000000      34.74550961       1.16947599
      13.70000000      90.00000000      45.00000000      34.74573754       1.16948366
      13.80000000      90.00000000      45.00000000      34.74596546       1.16949133
      13.90000000      90.00000000      45.00000000      34.74619335       1.16949900
      14.00000000      90.00000000      45.00000000      34.74642121       1.16950667
      14.10000000      90.00000000      45.00000000      34.74664906       1.16951434
      14.20000000      90.00000000      45.00000000      34.74687689       1.16952201
      14.30000000      90.00000000      45.00000000      34.74710469       1.16952968
      14.40000000      90.00000000      45.00000000      34.74733248       1.16953735
      14.50000000      90.00000000      45.00000000      34.74756024       1.16954501
      14.60000000      90.00000000      45.00000000      34.74778798       1.16955268
      14.70000000      90.00000000      45.00000000      34.74801570       1.16956034
      14.80000000      90.00000000      45.00000000      34.74824340       1.16956801
      14.90000000      90.00000000      45.00000000      34.74847108       1.16957567
      15.00000000      90.00000000      45.00000000      34.74869873       1.16958333
      15.10000000      90.00000000      45.00000000      34.74892637       1.16959099
      15.20000000      90.00000000      45.00000000      34.74915398       1.16959865
      15.30000000      90.00000000      45.00000000      34.74938158       1.16960632
      15.40000000      90.00000000      45.00000000      34.74960915       1.16961397
      15.50000000      90.00000000      45.00000000      34.74983670       1.16962163
      15.60000000      90.00000000      45.00000000      34.75006423       1.16962929
      15.70000000      90.00000000      45.00000000      34.75029174       1.16963695
      15.80000000      90.00000000      45.00000000      34.75051923       1.16964461
      15.90000000      90.00000000      45.00000000      34.75074669       1.16965226
      16.00000000      90.00000000      45.00000000      34.75097414       1.16965992
      16.10000000      90.00000000      45.00000000      34.75120156       1.16966757
      16.20000000      90.00000000      45.00000000      34.75142897       1.16967523
      16.30000000      90.00000000      45.00000000      34.75165635       1.16968288
      16.40000000      90.00000000      45.00000000      34.75188371       1.16969053
      16.50000000      90.00000000      45.00000000      34.75211105       1.16969818
      16.60000000      90.00000000      45.00000000      34.75233837       1.16970584
      16.70000000      90.00000000      45.00000000      34.75256567       1.16971349
      16.80000000      90.00000000      45.00000000      34.75279295       1.16972114
      16.90000000      90.00000000      45.00000000      34.75302020       1.16972879
      17.00000000      90.00000000      45.00000000      34.75324744       1.16973643
      17.10000000      90.00000000      45.00000000      34.75347465       1.16974408
      17.20000000      90.00000000      45.00000000      34.75370185       1.16975173
      17.30000000      90.00000000      45.00000000      34.75392902       1.16975937
      17.40000000      90.00000000      45.00000000      34.75415617       1.16976702
      17.50000000      90.00000000      45.00000000      34.75438330       1.16977466
      17.60000000      90.00000000      45.00000000      34.75461041       1.16978231
      17.70000000      90.00000000      45.00000000      34.75483750       1.16978995
      17.80000000      90.00000000      45.00000000      34.75506457       1.16979760
      17.90000000      90.00000000      45.00000000      34.75529162       1.16980524
      18.00000000      90.00000000      45.00000000      34.75551864       1.16981288
      18.10000000      90.00000000      45.00000000      34.75574565       1.16982052
      18.20000000      90.00000000      45.00000000      34.75597263       1.16982816
      18.30000000      90.00000000      45.00000000      34.75619960       1.16983580
      18.40000000      90.00000000      45.00000000      34.75642654       1.16984344
      18.50000000      90.00000000      45.00000000      34.75665346       1.16985107
      18.60000000      90.00000000      45.00000000      34.75688036       1.16985871
      18.70000000      90.00000000      45.00000000      34.75710724       1.16986635
      18.80000000      90.00000000      45.00000000      34.75733410       1.16987398
      18.90000000      90.00000000      45.00000000      34.75756094       1.16988162
      19.00000000      90.00000000      45.00000000      34.75778776       1.16988925
      19.10000000      90.00000000      45.00000000      34.75801455       1.16989689
      19.20000000      90.00000000      45.00000000      34.75824133       1.16990452
      19.30000000      90.00000000      45.00000000      34.75846809       1.16991215
      19.40000000      90.00000000      45.00000000      34.75869482       1.16991978
      19.50000000      90.00000000      45.00000000      34.75892153       1.16992741
      19.60000000      90.00000000      45.00000000      34.75914823       1.16993504
      19.70000000      90.00000000      45.00000000      34.75937490       1.16994267
      19.80000000      90.00000000      45.00000000      34.75960155       1.16995030
      19.90000000      90.00000000      45.00000000      34.75982818       1.16995793
      20.00000000      90.00000000      45.00000000      34.76005479       1.16996556
      20.10000000      90.00000000      45.00000000      34.76028138       1.16997318
      20.20000000      90.00000000      45.00000000      34.76050795       1.16998081
      20.30000000      90.00000000      45.00000000      34.76073450       1.16998844
      20.40000000      90.00000000      45.00000000      34.76096102       1.16999606
      20.50000000      90.00000000      45.00000000      34.76118753       1.17000368
      20.60000000      90.00000000      45.00000000      34.76141402       1.17001131
      20.70000000      90.00000000      45.00000000      34.76164048       1.17001893
      20.80000000      90.00000000      45.00000000      34.76186693       1.17002655
      20.90000000      90.00000000      45.00000000      34.76209335       1.17003417
      21.00000000      90.00000000      45.00000000      34.76231975       1.17004179
      21.10000000      90.00000000      45.00000000      34.76254614       1.17004941
      21.20000000      90.00000000      45.00000000      34.76277250       1.17005703
      21.30000000      90.00000000      45.00000000      34.76299884       1.17006465
      21.40000000      90.00000000      45.00000000      34.76322516       1.17007227
      21.50000000      90.00000000      45.00000000      34.76345146       1.17007988
      21.60000000      90.00000000      45.00000000      34.76367774       1.17008750
      21.70000000      90.00000000      45.00000000      34.76390400       1.17009512
      21.80000000      90.00000000      45.00000000      34.76413024       1.17010273
      21.90000000      90.00000000      45.00000000      34.76435646       1.17011034
      22.00000000      90.00000000      45.00000000      34.76458265       1.17011796
      22.10000000      90.00000000      45.00000000      34.76480883       1.17012557
      22.20000000      90.00000000      45.00000000      34.76503498       1.17013318
      22.30000000      90.00000000      45.00000000      34.76526112       1.17014079
      22.40000000      90.00000000      45.00000000      34.76548724       1.17014840
      22.50000000      90.00000000      45.00000000      34.76571333       1.17015601
      22.60000000      90.00000000      45.00000000      34.76593940       1.17016362
      22.70000000      90.00000000      45.00000000      34.76616546       1.17017123
      22.80000000      90.00000000      45.00000000      34.76639149       1.17017884
      22.90000000      90.00000000      45.00000000      34.76661750       1.17018645
      23.00000000      90.00000000      45.00000000      34.76684349       1.17019405
