 # applied field (T), theta (degree), phi (degree), abs for RE 3-4
     0.00000    90.00000   219.60987     3.66942    90.00000   230.39013     3.66942
     0.10000    90.00000   219.60969     3.66941    90.00000   230.39031     3.66941
     0.20000    90.00000   219.60951     3.66941    90.00000   230.39049     3.66941
     0.30000    90.00000   219.60934     3.66940    90.00000   230.39066     3.66940
     0.40000    90.00000   219.60916     3.66940    90.00000   230.39084     3.66940
     0.50000    90.00000   219.60899     3.66939    90.00000   230.39101     3.66939
     0.60000    90.00000   219.60881     3.66939    90.00000   230.39119     3.66939
     0.70000    90.00000   219.60863     3.66938    90.00000   230.39137     3.66938
     0.80000    90.00000   219.60846     3.66938    90.00000   230.39154     3.66938
     0.90000    90.00000   219.60828     3.66937    90.00000   230.39172     3.66937
     1.00000    90.00000   219.60810     3.66937    90.00000   230.39190     3.66937
     1.10000    90.00000   219.60793     3.66936    90.00000   230.39207     3.66936
     1.20000    90.00000   219.60775     3.66936    90.00000   230.39225     3.66936
     1.30000    90.00000   219.60758     3.66935    90.00000   230.39242     3.66935
     1.40000    90.00000   219.60740     3.66935    90.00000   230.39260     3.66935
     1.50000    90.00000   219.60722     3.66934    90.00000   230.39278     3.66934
     1.60000    90.00000   219.60705     3.66934    90.00000   230.39295     3.66934
     1.70000    90.00000   219.60687     3.66933    90.00000   230.39313     3.66933
     1.80000    90.00000   219.60669     3.66933    90.00000   230.39331     3.66933
     1.90000    90.00000   219.60652     3.66932    90.00000   230.39348     3.66932
     2.00000    90.00000   219.60634     3.66932    90.00000   230.39366     3.66932
     2.10000    90.00000   219.60617     3.66931    90.00000   230.39383     3.66931
     2.20000    90.00000   219.60599     3.66931    90.00000   230.39401     3.66931
     2.30000    90.00000   219.60581     3.66930    90.00000   230.39419     3.66930
     2.40000    90.00000   219.60564     3.66930    90.00000   230.39436     3.66930
     2.50000    90.00000   219.60546     3.66929    90.00000   230.39454     3.66929
     2.60000    90.00000   219.60528     3.66928    90.00000   230.39472     3.66928
     2.70000    90.00000   219.60511     3.66928    90.00000   230.39489     3.66928
     2.80000    90.00000   219.60493     3.66927    90.00000   230.39507     3.66927
     2.90000    90.00000   219.60476     3.66927    90.00000   230.39524     3.66927
     3.00000    90.00000   219.60458     3.66926    90.00000   230.39542     3.66926
     3.10000    90.00000   219.60440     3.66926    90.00000   230.39560     3.66926
     3.20000    90.00000   219.60423     3.66925    90.00000   230.39577     3.66925
     3.30000    90.00000   219.60405     3.66925    90.00000   230.39595     3.66925
     3.40000    90.00000   219.60387     3.66924    90.00000   230.39613     3.66924
     3.50000    90.00000   219.60370     3.66923    90.00000   230.39630     3.66923
     3.60000    90.00000   219.60352     3.66923    90.00000   230.39648     3.66923
     3.70000    90.00000   219.60334     3.66922    90.00000   230.39666     3.66922
     3.80000    90.00000   219.60317     3.66922    90.00000   230.39683     3.66922
     3.90000    90.00000   219.60299     3.66921    90.00000   230.39701     3.66921
     4.00000    90.00000   219.60281     3.66921    90.00000   230.39719     3.66921
     4.10000    90.00000   219.60264     3.66920    90.00000   230.39736     3.66920
     4.20000    90.00000   219.60246     3.66920    90.00000   230.39754     3.66920
     4.30000    90.00000   219.60228     3.66919    90.00000   230.39772     3.66919
     4.40000    90.00000   219.60211     3.66918    90.00000   230.39789     3.66918
     4.50000    90.00000   219.60193     3.66918    90.00000   230.39807     3.66918
     4.60000    90.00000   219.60175     3.66917    90.00000   230.39825     3.66917
     4.70000    90.00000   219.60158     3.66917    90.00000   230.39842     3.66917
     4.80000    90.00000   219.60140     3.66916    90.00000   230.39860     3.66916
     4.90000    90.00000   219.60122     3.66915    90.00000   230.39878     3.66915
     5.00000    90.00000   219.60105     3.66915    90.00000   230.39895     3.66915
     5.10000    90.00000   219.60087     3.66914    90.00000   230.39913     3.66914
     5.20000    90.00000   219.60069     3.66914    90.00000   230.39931     3.66914
     5.30000    90.00000   219.60052     3.66913    90.00000   230.39948     3.66913
     5.40000    90.00000   219.60034     3.66913    90.00000   230.39966     3.66913
     5.50000    90.00000   219.60016     3.66912    90.00000   230.39984     3.66912
     5.60000    90.00000   219.59999     3.66911    90.00000   230.40001     3.66911
     5.70000    90.00000   219.59981     3.66911    90.00000   230.40019     3.66911
     5.80000    90.00000   219.59963     3.66910    90.00000   230.40037     3.66910
     5.90000    90.00000   219.59946     3.66910    90.00000   230.40054     3.66910
     6.00000    90.00000   219.59928     3.66909    90.00000   230.40072     3.66909
     6.10000    90.00000   219.59910     3.66908    90.00000   230.40090     3.66908
     6.20000    90.00000   219.59893     3.66908    90.00000   230.40107     3.66908
     6.30000    90.00000   219.59875     3.66907    90.00000   230.40125     3.66907
     6.40000    90.00000   219.59857     3.66907    90.00000   230.40143     3.66907
     6.50000    90.00000   219.59839     3.66906    90.00000   230.40161     3.66906
     6.60000    90.00000   219.59822     3.66905    90.00000   230.40178     3.66905
     6.70000    90.00000   219.59804     3.66905    90.00000   230.40196     3.66905
     6.80000    90.00000   219.59786     3.66904    90.00000   230.40214     3.66904
     6.90000    90.00000   219.59769     3.66903    90.00000   230.40231     3.66903
     7.00000    90.00000   219.59751     3.66903    90.00000   230.40249     3.66903
     7.10000    90.00000   219.59733     3.66902    90.00000   230.40267     3.66902
     7.20000    90.00000   219.59716     3.66902    90.00000   230.40284     3.66902
     7.30000    90.00000   219.59698     3.66901    90.00000   230.40302     3.66901
     7.40000    90.00000   219.59680     3.66900    90.00000   230.40320     3.66900
     7.50000    90.00000   219.59662     3.66900    90.00000   230.40338     3.66900
     7.60000    90.00000   219.59645     3.66899    90.00000   230.40355     3.66899
     7.70000    90.00000   219.59627     3.66898    90.00000   230.40373     3.66898
     7.80000    90.00000   219.59609     3.66898    90.00000   230.40391     3.66898
     7.90000    90.00000   219.59592     3.66897    90.00000   230.40408     3.66897
     8.00000    90.00000   219.59574     3.66896    90.00000   230.40426     3.66896
     8.10000    90.00000   219.59556     3.66896    90.00000   230.40444     3.66896
     8.20000    90.00000   219.59538     3.66895    90.00000   230.40462     3.66895
     8.30000    90.00000   219.59521     3.66895    90.00000   230.40479     3.66895
     8.40000    90.00000   219.59503     3.66894    90.00000   230.40497     3.66894
     8.50000    90.00000   219.59485     3.66893    90.00000   230.40515     3.66893
     8.60000    90.00000   219.59468     3.66893    90.00000   230.40532     3.66893
     8.70000    90.00000   219.59450     3.66892    90.00000   230.40550     3.66892
     8.80000    90.00000   219.59432     3.66891    90.00000   230.40568     3.66891
     8.90000    90.00000   219.59414     3.66891    90.00000   230.40586     3.66891
     9.00000    90.00000   219.59397     3.66890    90.00000   230.40603     3.66890
     9.10000    90.00000   219.59379     3.66889    90.00000   230.40621     3.66889
     9.20000    90.00000   219.59361     3.66889    90.00000   230.40639     3.66889
     9.30000    90.00000   219.59343     3.66888    90.00000   230.40657     3.66888
     9.40000    90.00000   219.59326     3.66887    90.00000   230.40674     3.66887
     9.50000    90.00000   219.59308     3.66887    90.00000   230.40692     3.66887
     9.60000    90.00000   219.59290     3.66886    90.00000   230.40710     3.66886
     9.70000    90.00000   219.59272     3.66885    90.00000   230.40728     3.66885
     9.80000    90.00000   219.59255     3.66885    90.00000   230.40745     3.66885
     9.90000    90.00000   219.59237     3.66884    90.00000   230.40763     3.66884
    10.00000    90.00000   219.59219     3.66883    90.00000   230.40781     3.66883
    10.10000    90.00000   219.59202     3.66883    90.00000   230.40798     3.66883
    10.20000    90.00000   219.59184     3.66882    90.00000   230.40816     3.66882
    10.30000    90.00000   219.59166     3.66881    90.00000   230.40834     3.66881
    10.40000    90.00000   219.59148     3.66881    90.00000   230.40852     3.66881
    10.50000    90.00000   219.59131     3.66880    90.00000   230.40869     3.66880
    10.60000    90.00000   219.59113     3.66879    90.00000   230.40887     3.66879
    10.70000    90.00000   219.59095     3.66878    90.00000   230.40905     3.66878
    10.80000    90.00000   219.59077     3.66878    90.00000   230.40923     3.66878
    10.90000    90.00000   219.59059     3.66877    90.00000   230.40941     3.66877
    11.00000    90.00000   219.59042     3.66876    90.00000   230.40958     3.66876
    11.10000    90.00000   219.59024     3.66876    90.00000   230.40976     3.66876
    11.20000    90.00000   219.59006     3.66875    90.00000   230.40994     3.66875
    11.30000    90.00000   219.58988     3.66874    90.00000   230.41012     3.66874
    11.40000    90.00000   219.58971     3.66874    90.00000   230.41029     3.66874
    11.50000    90.00000   219.58953     3.66873    90.00000   230.41047     3.66873
    11.60000    90.00000   219.58935     3.66872    90.00000   230.41065     3.66872
    11.70000    90.00000   219.58917     3.66871    90.00000   230.41083     3.66871
    11.80000    90.00000   219.58900     3.66871    90.00000   230.41100     3.66871
    11.90000    90.00000   219.58882     3.66870    90.00000   230.41118     3.66870
    12.00000    90.00000   219.58864     3.66869    90.00000   230.41136     3.66869
    12.10000    90.00000   219.58846     3.66869    90.00000   230.41154     3.66869
    12.20000    90.00000   219.58828     3.66868    90.00000   230.41172     3.66868
    12.30000    90.00000   219.58811     3.66867    90.00000   230.41189     3.66867
    12.40000    90.00000   219.58793     3.66866    90.00000   230.41207     3.66866
    12.50000    90.00000   219.58775     3.66866    90.00000   230.41225     3.66866
    12.60000    90.00000   219.58757     3.66865    90.00000   230.41243     3.66865
    12.70000    90.00000   219.58739     3.66864    90.00000   230.41261     3.66864
    12.80000    90.00000   219.58722     3.66864    90.00000   230.41278     3.66864
    12.90000    90.00000   219.58704     3.66863    90.00000   230.41296     3.66863
    13.00000    90.00000   219.58686     3.66862    90.00000   230.41314     3.66862
    13.10000    90.00000   219.58668     3.66861    90.00000   230.41332     3.66861
    13.20000    90.00000   219.58651     3.66861    90.00000   230.41349     3.66861
    13.30000    90.00000   219.58633     3.66860    90.00000   230.41367     3.66860
    13.40000    90.00000   219.58615     3.66859    90.00000   230.41385     3.66859
    13.50000    90.00000   219.58597     3.66858    90.00000   230.41403     3.66858
    13.60000    90.00000   219.58579     3.66858    90.00000   230.41421     3.66858
    13.70000    90.00000   219.58562     3.66857    90.00000   230.41438     3.66857
    13.80000    90.00000   219.58544     3.66856    90.00000   230.41456     3.66856
    13.90000    90.00000   219.58526     3.66855    90.00000   230.41474     3.66855
    14.00000    90.00000   219.58508     3.66855    90.00000   230.41492     3.66855
    14.10000    90.00000   219.58490     3.66854    90.00000   230.41510     3.66854
    14.20000    90.00000   219.58472     3.66853    90.00000   230.41528     3.66853
    14.30000    90.00000   219.58455     3.66852    90.00000   230.41545     3.66852
    14.40000    90.00000   219.58437     3.66852    90.00000   230.41563     3.66852
    14.50000    90.00000   219.58419     3.66851    90.00000   230.41581     3.66851
    14.60000    90.00000   219.58401     3.66850    90.00000   230.41599     3.66850
    14.70000    90.00000   219.58383     3.66849    90.00000   230.41617     3.66849
    14.80000    90.00000   219.58366     3.66849    90.00000   230.41634     3.66849
    14.90000    90.00000   219.58348     3.66848    90.00000   230.41652     3.66848
    15.00000    90.00000   219.58330     3.66847    90.00000   230.41670     3.66847
    15.10000    90.00000   219.58312     3.66846    90.00000   230.41688     3.66846
    15.20000    90.00000   219.58294     3.66846    90.00000   230.41706     3.66846
    15.30000    90.00000   219.58276     3.66845    90.00000   230.41724     3.66845
    15.40000    90.00000   219.58259     3.66844    90.00000   230.41741     3.66844
    15.50000    90.00000   219.58241     3.66843    90.00000   230.41759     3.66843
    15.60000    90.00000   219.58223     3.66842    90.00000   230.41777     3.66842
    15.70000    90.00000   219.58205     3.66842    90.00000   230.41795     3.66842
    15.80000    90.00000   219.58187     3.66841    90.00000   230.41813     3.66841
    15.90000    90.00000   219.58169     3.66840    90.00000   230.41831     3.66840
    16.00000    90.00000   219.58152     3.66839    90.00000   230.41848     3.66839
    16.10000    90.00000   219.58134     3.66838    90.00000   230.41866     3.66838
    16.20000    90.00000   219.58116     3.66838    90.00000   230.41884     3.66838
    16.30000    90.00000   219.58098     3.66837    90.00000   230.41902     3.66837
    16.40000    90.00000   219.58080     3.66836    90.00000   230.41920     3.66836
    16.50000    90.00000   219.58062     3.66835    90.00000   230.41938     3.66835
    16.60000    90.00000   219.58044     3.66835    90.00000   230.41956     3.66835
    16.70000    90.00000   219.58027     3.66834    90.00000   230.41973     3.66834
    16.80000    90.00000   219.58009     3.66833    90.00000   230.41991     3.66833
    16.90000    90.00000   219.57991     3.66832    90.00000   230.42009     3.66832
    17.00000    90.00000   219.57973     3.66831    90.00000   230.42027     3.66831
    17.10000    90.00000   219.57955     3.66830    90.00000   230.42045     3.66830
    17.20000    90.00000   219.57937     3.66830    90.00000   230.42063     3.66830
    17.30000    90.00000   219.57919     3.66829    90.00000   230.42081     3.66829
    17.40000    90.00000   219.57902     3.66828    90.00000   230.42098     3.66828
    17.50000    90.00000   219.57884     3.66827    90.00000   230.42116     3.66827
    17.60000    90.00000   219.57866     3.66826    90.00000   230.42134     3.66826
    17.70000    90.00000   219.57848     3.66826    90.00000   230.42152     3.66826
    17.80000    90.00000   219.57830     3.66825    90.00000   230.42170     3.66825
    17.90000    90.00000   219.57812     3.66824    90.00000   230.42188     3.66824
    18.00000    90.00000   219.57794     3.66823    90.00000   230.42206     3.66823
    18.10000    90.00000   219.57776     3.66822    90.00000   230.42224     3.66822
    18.20000    90.00000   219.57759     3.66821    90.00000   230.42241     3.66821
    18.30000    90.00000   219.57741     3.66821    90.00000   230.42259     3.66821
    18.40000    90.00000   219.57723     3.66820    90.00000   230.42277     3.66820
    18.50000    90.00000   219.57705     3.66819    90.00000   230.42295     3.66819
    18.60000    90.00000   219.57687     3.66818    90.00000   230.42313     3.66818
    18.70000    90.00000   219.57669     3.66817    90.00000   230.42331     3.66817
    18.80000    90.00000   219.57651     3.66816    90.00000   230.42349     3.66816
    18.90000    90.00000   219.57633     3.66816    90.00000   230.42367     3.66816
    19.00000    90.00000   219.57615     3.66815    90.00000   230.42385     3.66815
    19.10000    90.00000   219.57597     3.66814    90.00000   230.42403     3.66814
    19.20000    90.00000   219.57580     3.66813    90.00000   230.42420     3.66813
    19.30000    90.00000   219.57562     3.66812    90.00000   230.42438     3.66812
    19.40000    90.00000   219.57544     3.66811    90.00000   230.42456     3.66811
    19.50000    90.00000   219.57526     3.66811    90.00000   230.42474     3.66811
    19.60000    90.00000   219.57508     3.66810    90.00000   230.42492     3.66810
    19.70000    90.00000   219.57490     3.66809    90.00000   230.42510     3.66809
    19.80000    90.00000   219.57472     3.66808    90.00000   230.42528     3.66808
    19.90000    90.00000   219.57454     3.66807    90.00000   230.42546     3.66807
    20.00000    90.00000   219.57436     3.66806    90.00000   230.42564     3.66806
    20.10000    90.00000   219.57418     3.66805    90.00000   230.42582     3.66805
    20.20000    90.00000   219.57401     3.66805    90.00000   230.42599     3.66805
    20.30000    90.00000   219.57383     3.66804    90.00000   230.42617     3.66804
    20.40000    90.00000   219.57365     3.66803    90.00000   230.42635     3.66803
    20.50000    90.00000   219.57347     3.66802    90.00000   230.42653     3.66802
    20.60000    90.00000   219.57329     3.66801    90.00000   230.42671     3.66801
    20.70000    90.00000   219.57311     3.66800    90.00000   230.42689     3.66800
    20.80000    90.00000   219.57293     3.66799    90.00000   230.42707     3.66799
    20.90000    90.00000   219.57275     3.66798    90.00000   230.42725     3.66798
    21.00000    90.00000   219.57257     3.66798    90.00000   230.42743     3.66798
    21.10000    90.00000   219.57239     3.66797    90.00000   230.42761     3.66797
    21.20000    90.00000   219.57221     3.66796    90.00000   230.42779     3.66796
    21.30000    90.00000   219.57203     3.66795    90.00000   230.42797     3.66795
    21.40000    90.00000   219.57185     3.66794    90.00000   230.42815     3.66794
    21.50000    90.00000   219.57167     3.66793    90.00000   230.42833     3.66793
    21.60000    90.00000   219.57150     3.66792    90.00000   230.42850     3.66792
    21.70000    90.00000   219.57132     3.66791    90.00000   230.42868     3.66791
    21.80000    90.00000   219.57114     3.66790    90.00000   230.42886     3.66790
    21.90000    90.00000   219.57096     3.66790    90.00000   230.42904     3.66790
    22.00000    90.00000   219.57078     3.66789    90.00000   230.42922     3.66789
    22.10000    90.00000   219.57060     3.66788    90.00000   230.42940     3.66788
    22.20000    90.00000   219.57042     3.66787    90.00000   230.42958     3.66787
    22.30000    90.00000   219.57024     3.66786    90.00000   230.42976     3.66786
    22.40000    90.00000   219.57006     3.66785    90.00000   230.42994     3.66785
    22.50000    90.00000   219.56988     3.66784    90.00000   230.43012     3.66784
    22.60000    90.00000   219.56970     3.66783    90.00000   230.43030     3.66783
    22.70000    90.00000   219.56952     3.66782    90.00000   230.43048     3.66782
    22.80000    90.00000   219.56934     3.66781    90.00000   230.43066     3.66781
    22.90000    90.00000   219.56916     3.66780    90.00000   230.43084     3.66780
    23.00000    90.00000   219.56898     3.66780    90.00000   230.43102     3.66780
    23.10000    90.00000   219.56880     3.66779    90.00000   230.43120     3.66779
    23.20000    90.00000   219.56862     3.66778    90.00000   230.43138     3.66778
    23.30000    90.00000   219.56844     3.66777    90.00000   230.43156     3.66777
