 # applied field (T), theta (degree), phi (degree), abs [muB/unitcell], abs [T]
       0.00000000       0.00000000       0.00000000      47.93003253       1.66905621
       0.10000000       0.57042499     360.00000000      47.93001873       1.66905573
       0.20000000       1.14085236     360.00000000      47.92997733       1.66905429
       0.30000000       1.71128447     360.00000000      47.92990839       1.66905189
       0.40000000       2.28172369     360.00000000      47.92981199       1.66904853
       0.50000000       2.79518985     360.00000000      47.92970271       1.66904472
       0.60000000       3.36564903     360.00000000      47.92955466       1.66903957
       0.70000000       3.93612213     360.00000000      47.92937958       1.66903347
       0.80000000       4.50661146     360.00000000      47.92917767       1.66902644
       0.90000000       5.07711933     360.00000000      47.92894919       1.66901848
       1.00000000       5.64764802     360.00000000      47.92869440       1.66900961
       1.10000000       6.21819980     360.00000000      47.92841361       1.66899983
       1.20000000       6.84577352     360.00000000      47.92807302       1.66898797
       1.30000000       7.41638108     360.00000000      47.92773861       1.66897633
       1.40000000       7.98701858     360.00000000      47.92737935       1.66896382
       1.50000000       8.55768815     360.00000000      47.92699568       1.66895046
       1.60000000       9.12839192     360.00000000      47.92658805       1.66893626
       1.70000000       9.75614581     360.00000000      47.92610959       1.66891960
       1.80000000      10.32692816     360.00000000      47.92565311       1.66890371
       1.90000000      10.95477356     360.00000000      47.92512185       1.66888521
       2.00000000      11.52564329     360.00000000      47.92461896       1.66886769
       2.10000000      12.15358964     360.00000000      47.92403770       1.66884745
       2.20000000      12.78159256     360.00000000      47.92343137       1.66882634
       2.30000000      13.40965442     360.00000000      47.92280085       1.66880438
       2.40000000      14.03777755     360.00000000      47.92214704       1.66878162
       2.50000000      14.66596419     360.00000000      47.92147088       1.66875807
       2.60000000      15.29421647     360.00000000      47.92077335       1.66873378
       2.70000000      15.92253646     360.00000000      47.92005545       1.66870878
       2.80000000      16.60800061     360.00000000      47.91924569       1.66868058
       2.90000000      17.23646858     360.00000000      47.91848839       1.66865421
       3.00000000      17.92209880     360.00000000      47.91763786       1.66862459
       3.10000000      18.60781899     360.00000000      47.91676805       1.66859430
       3.20000000      19.29363117     360.00000000      47.91588042       1.66856339
       3.30000000      20.03665040     360.00000000      47.91489546       1.66852910
       3.40000000      20.72266031     360.00000000      47.91397538       1.66849706
       3.50000000      21.46589798     360.00000000      47.91295850       1.66846165
       3.60000000      22.20925207     360.00000000      47.91192783       1.66842575
       3.70000000      22.95272416     360.00000000      47.91088535       1.66838945
       3.80000000      23.75347472     360.00000000      47.90974637       1.66834979
       3.90000000      24.55436554     360.00000000      47.90859819       1.66830981
       4.00000000      25.35539773     360.00000000      47.90744334       1.66826959
       4.10000000      26.21376299     360.00000000      47.90619596       1.66822615
       4.20000000      27.07229252     360.00000000      47.90494654       1.66818265
       4.30000000      27.98820060     360.00000000      47.90360959       1.66813609
       4.40000000      28.90429604     360.00000000      47.90227713       1.66808969
       4.50000000      29.87781674     360.00000000      47.90086493       1.66804051
       4.60000000      30.90879901     360.00000000      47.89937873       1.66798876
       4.70000000      31.94001417     360.00000000      47.89791167       1.66793767
       4.80000000      33.08601709     360.00000000      47.89629931       1.66788153
       4.90000000      34.23229873     360.00000000      47.89472190       1.66782660
       5.00000000      35.49346893     360.00000000      47.89302410       1.66776747
       5.10000000      36.86960734     360.00000000      47.89122668       1.66770488
       5.20000000      38.30345215     360.00000000      47.88942943       1.66764230
       5.30000000      39.96710306     360.00000000      47.88743964       1.66757301
       5.40000000      41.80335688     360.00000000      47.88538443       1.66750144
       5.50000000      43.92711138     360.00000000      47.88320361       1.66742550
       5.60000000      46.62563183     360.00000000      47.88074947       1.66734004
       5.70000000      50.47370726     360.00000000      47.87789075       1.66724049
       5.80000000      90.00000000     360.00000000      47.87462775       1.66712686
       5.90000000      90.00000000     360.00000000      47.87478291       1.66713227
       6.00000000      90.00000000     360.00000000      47.87493805       1.66713767
       6.10000000      90.00000000     360.00000000      47.87509315       1.66714307
       6.20000000      90.00000000     360.00000000      47.87524823       1.66714847
       6.30000000      90.00000000     360.00000000      47.87540328       1.66715387
       6.40000000      90.00000000     360.00000000      47.87555831       1.66715927
       6.50000000      90.00000000     360.00000000      47.87571331       1.66716466
       6.60000000      90.00000000     360.00000000      47.87586827       1.66717006
       6.70000000      90.00000000     360.00000000      47.87602322       1.66717546
       6.80000000      90.00000000     360.00000000      47.87617813       1.66718085
       6.90000000      90.00000000     360.00000000      47.87633302       1.66718624
       7.00000000      90.00000000     360.00000000      47.87648788       1.66719164
       7.10000000      90.00000000     360.00000000      47.87664271       1.66719703
       7.20000000      90.00000000     360.00000000      47.87679752       1.66720242
       7.30000000      90.00000000     360.00000000      47.87695230       1.66720781
       7.40000000      90.00000000     360.00000000      47.87710705       1.66721320
       7.50000000      90.00000000     360.00000000      47.87726177       1.66721859
       7.60000000      90.00000000     360.00000000      47.87741647       1.66722397
       7.70000000      90.00000000     360.00000000      47.87757114       1.66722936
       7.80000000      90.00000000     360.00000000      47.87772578       1.66723474
       7.90000000      90.00000000     360.00000000      47.87788039       1.66724013
       8.00000000      90.00000000     360.00000000      47.87803498       1.66724551
       8.10000000      90.00000000     360.00000000      47.87818954       1.66725089
       8.20000000      90.00000000     360.00000000      47.87834407       1.66725627
       8.30000000      90.00000000     360.00000000      47.87849858       1.66726166
       8.40000000      90.00000000     360.00000000      47.87865306       1.66726703
       8.50000000      90.00000000     360.00000000      47.87880751       1.66727241
       8.60000000      90.00000000     360.00000000      47.87896193       1.66727779
       8.70000000      90.00000000     360.00000000      47.87911633       1.66728317
       8.80000000      90.00000000     360.00000000      47.87927070       1.66728854
       8.90000000      90.00000000     360.00000000      47.87942505       1.66729392
       9.00000000      90.00000000     360.00000000      47.87957936       1.66729929
       9.10000000      90.00000000     360.00000000      47.87973365       1.66730466
       9.20000000      90.00000000     360.00000000      47.87988791       1.66731004
       9.30000000      90.00000000     360.00000000      47.88004215       1.66731541
       9.40000000      90.00000000     360.00000000      47.88019636       1.66732078
       9.50000000      90.00000000     360.00000000      47.88035054       1.66732615
       9.60000000      90.00000000     360.00000000      47.88050469       1.66733151
       9.70000000      90.00000000     360.00000000      47.88065882       1.66733688
       9.80000000      90.00000000     360.00000000      47.88081292       1.66734225
       9.90000000      90.00000000     360.00000000      47.88096699       1.66734761
      10.00000000      90.00000000     360.00000000      47.88112104       1.66735298
      10.10000000      90.00000000     360.00000000      47.88127506       1.66735834
      10.20000000      90.00000000     360.00000000      47.88142905       1.66736370
      10.30000000      90.00000000     360.00000000      47.88158301       1.66736906
      10.40000000      90.00000000     360.00000000      47.88173695       1.66737442
      10.50000000      90.00000000     360.00000000      47.88189086       1.66737978
      10.60000000      90.00000000     360.00000000      47.88204475       1.66738514
      10.70000000      90.00000000     360.00000000      47.88219861       1.66739050
      10.80000000      90.00000000     360.00000000      47.88235244       1.66739586
      10.90000000      90.00000000     360.00000000      47.88250624       1.66740121
      11.00000000      90.00000000     360.00000000      47.88266002       1.66740657
      11.10000000      90.00000000     360.00000000      47.88281377       1.66741192
      11.20000000      90.00000000     360.00000000      47.88296749       1.66741728
      11.30000000      90.00000000     360.00000000      47.88312119       1.66742263
      11.40000000      90.00000000     360.00000000      47.88327486       1.66742798
      11.50000000      90.00000000     360.00000000      47.88342850       1.66743333
      11.60000000      90.00000000     360.00000000      47.88358212       1.66743868
      11.70000000      90.00000000     360.00000000      47.88373571       1.66744403
      11.80000000      90.00000000     360.00000000      47.88388927       1.66744937
      11.90000000      90.00000000     360.00000000      47.88404281       1.66745472
      12.00000000      90.00000000     360.00000000      47.88419632       1.66746007
      12.10000000      90.00000000     360.00000000      47.88434980       1.66746541
      12.20000000      90.00000000     360.00000000      47.88450326       1.66747075
      12.30000000      90.00000000     360.00000000      47.88465669       1.66747610
      12.40000000      90.00000000     360.00000000      47.88481009       1.66748144
      12.50000000      90.00000000     360.00000000      47.88496347       1.66748678
      12.60000000      90.00000000     360.00000000      47.88511682       1.66749212
      12.70000000      90.00000000     360.00000000      47.88527014       1.66749746
      12.80000000      90.00000000     360.00000000      47.88542344       1.66750280
      12.90000000      90.00000000     360.00000000      47.88557671       1.66750814
      13.00000000      90.00000000     360.00000000      47.88572995       1.66751347
      13.10000000      90.00000000     360.00000000      47.88588317       1.66751881
      13.20000000      90.00000000     360.00000000      47.88603636       1.66752414
      13.30000000      90.00000000     360.00000000      47.88618952       1.66752948
      13.40000000      90.00000000     360.00000000      47.88634266       1.66753481
      13.50000000      90.00000000     360.00000000      47.88649577       1.66754014
      13.60000000      90.00000000     360.00000000      47.88664886       1.66754547
      13.70000000      90.00000000     360.00000000      47.88680191       1.66755080
      13.80000000      90.00000000     360.00000000      47.88695495       1.66755613
      13.90000000      90.00000000     360.00000000      47.88710795       1.66756146
      14.00000000      90.00000000     360.00000000      47.88726093       1.66756678
      14.10000000      90.00000000     360.00000000      47.88741388       1.66757211
      14.20000000      90.00000000     360.00000000      47.88756681       1.66757744
      14.30000000      90.00000000     360.00000000      47.88771971       1.66758276
      14.40000000      90.00000000     360.00000000      47.88787258       1.66758808
      14.50000000      90.00000000     360.00000000      47.88802543       1.66759341
      14.60000000      90.00000000     360.00000000      47.88817825       1.66759873
      14.70000000      90.00000000     360.00000000      47.88833104       1.66760405
      14.80000000      90.00000000     360.00000000      47.88848381       1.66760937
      14.90000000      90.00000000     360.00000000      47.88863655       1.66761469
      15.00000000      90.00000000     360.00000000      47.88878926       1.66762001
      15.10000000      90.00000000     360.00000000      47.88894195       1.66762532
      15.20000000      90.00000000     360.00000000      47.88909462       1.66763064
      15.30000000      90.00000000     360.00000000      47.88924725       1.66763595
      15.40000000      90.00000000     360.00000000      47.88939986       1.66764127
      15.50000000      90.00000000     360.00000000      47.88955244       1.66764658
      15.60000000      90.00000000     360.00000000      47.88970500       1.66765189
      15.70000000      90.00000000     360.00000000      47.88985753       1.66765721
      15.80000000      90.00000000     360.00000000      47.89001004       1.66766252
      15.90000000      90.00000000     360.00000000      47.89016252       1.66766783
      16.00000000      90.00000000     360.00000000      47.89031497       1.66767313
      16.10000000      90.00000000     360.00000000      47.89046740       1.66767844
      16.20000000      90.00000000     360.00000000      47.89061980       1.66768375
      16.30000000      90.00000000     360.00000000      47.89077217       1.66768906
      16.40000000      90.00000000     360.00000000      47.89092452       1.66769436
      16.50000000      90.00000000     360.00000000      47.89107684       1.66769967
      16.60000000      90.00000000     360.00000000      47.89122913       1.66770497
      16.70000000      90.00000000     360.00000000      47.89138140       1.66771027
      16.80000000      90.00000000     360.00000000      47.89153365       1.66771557
      16.90000000      90.00000000     360.00000000      47.89168586       1.66772087
      17.00000000      90.00000000     360.00000000      47.89183806       1.66772617
      17.10000000      90.00000000     360.00000000      47.89199022       1.66773147
      17.20000000      90.00000000     360.00000000      47.89214236       1.66773677
      17.30000000      90.00000000     360.00000000      47.89229447       1.66774207
      17.40000000      90.00000000     360.00000000      47.89244656       1.66774736
      17.50000000      90.00000000     360.00000000      47.89259862       1.66775266
      17.60000000      90.00000000     360.00000000      47.89275066       1.66775795
      17.70000000      90.00000000     360.00000000      47.89290267       1.66776325
      17.80000000      90.00000000     360.00000000      47.89305465       1.66776854
      17.90000000      90.00000000     360.00000000      47.89320661       1.66777383
      18.00000000      90.00000000     360.00000000      47.89335854       1.66777912
      18.10000000      90.00000000     360.00000000      47.89351044       1.66778441
      18.20000000      90.00000000     360.00000000      47.89366232       1.66778970
      18.30000000      90.00000000     360.00000000      47.89381418       1.66779499
      18.40000000      90.00000000     360.00000000      47.89396600       1.66780027
      18.50000000      90.00000000     360.00000000      47.89411780       1.66780556
      18.60000000      90.00000000     360.00000000      47.89426958       1.66781085
      18.70000000      90.00000000     360.00000000      47.89442133       1.66781613
      18.80000000      90.00000000     360.00000000      47.89457305       1.66782141
      18.90000000      90.00000000     360.00000000      47.89472475       1.66782670
      19.00000000      90.00000000     360.00000000      47.89487643       1.66783198
      19.10000000      90.00000000     360.00000000      47.89502807       1.66783726
      19.20000000      90.00000000     360.00000000      47.89517969       1.66784254
      19.30000000      90.00000000     360.00000000      47.89533129       1.66784782
      19.40000000      90.00000000     360.00000000      47.89548286       1.66785309
      19.50000000      90.00000000     360.00000000      47.89563440       1.66785837
      19.60000000      90.00000000     360.00000000      47.89578592       1.66786365
      19.70000000      90.00000000     360.00000000      47.89593741       1.66786892
      19.80000000      90.00000000     360.00000000      47.89608888       1.66787420
      19.90000000      90.00000000     360.00000000      47.89624032       1.66787947
      20.00000000      90.00000000     360.00000000      47.89639173       1.66788474
      20.10000000      90.00000000     360.00000000      47.89654312       1.66789002
      20.20000000      90.00000000     360.00000000      47.89669449       1.66789529
      20.30000000      90.00000000     360.00000000      47.89684583       1.66790056
      20.40000000      90.00000000     360.00000000      47.89699714       1.66790583
      20.50000000      90.00000000     360.00000000      47.89714842       1.66791109
      20.60000000      90.00000000     360.00000000      47.89729969       1.66791636
      20.70000000      90.00000000     360.00000000      47.89745092       1.66792163
      20.80000000      90.00000000     360.00000000      47.89760213       1.66792689
      20.90000000      90.00000000     360.00000000      47.89775332       1.66793216
      21.00000000      90.00000000     360.00000000      47.89790447       1.66793742
      21.10000000      90.00000000     360.00000000      47.89805561       1.66794269
      21.20000000      90.00000000     360.00000000      47.89820672       1.66794795
      21.30000000      90.00000000     360.00000000      47.89835780       1.66795321
      21.40000000      90.00000000     360.00000000      47.89850886       1.66795847
      21.50000000      90.00000000     360.00000000      47.89865989       1.66796373
      21.60000000      90.00000000     360.00000000      47.89881089       1.66796899
      21.70000000      90.00000000     360.00000000      47.89896187       1.66797424
      21.80000000      90.00000000     360.00000000      47.89911283       1.66797950
      21.90000000      90.00000000     360.00000000      47.89926376       1.66798476
      22.00000000      90.00000000     360.00000000      47.89941466       1.66799001
      22.10000000      90.00000000     360.00000000      47.89956554       1.66799527
      22.20000000      90.00000000     360.00000000      47.89971639       1.66800052
      22.30000000      90.00000000     360.00000000      47.89986722       1.66800577
      22.40000000      90.00000000     360.00000000      47.90001802       1.66801102
      22.50000000      90.00000000     360.00000000      47.90016880       1.66801627
      22.60000000      90.00000000     360.00000000      47.90031955       1.66802152
      22.70000000      90.00000000     360.00000000      47.90047028       1.66802677
      22.80000000      90.00000000     360.00000000      47.90062098       1.66803202
      22.90000000      90.00000000     360.00000000      47.90077165       1.66803727
      23.00000000      90.00000000     360.00000000      47.90092230       1.66804251
