 # applied field (T), theta (degree), phi (degree), abs for RE 1-2
     0.00000   180.00000   180.00000     4.39237   180.00000   180.00000     4.39237
     0.01000   179.95156   180.00000     4.39237   179.95156   180.00000     4.39237
     0.02000   179.95154   180.00000     4.39237   179.95154   180.00000     4.39237
     0.03000   179.90310   180.00000     4.39237   179.90310   180.00000     4.39237
     0.04000   179.85467   180.00000     4.39237   179.85467   180.00000     4.39237
     0.05000   179.85464   180.00000     4.39237   179.85464   180.00000     4.39237
     0.06000   179.80621   180.00000     4.39237   179.80621   180.00000     4.39237
     0.07000   179.75777   180.00000     4.39236   179.75777   180.00000     4.39236
     0.08000   179.70934   180.00000     4.39236   179.70934   180.00000     4.39236
     0.09000   179.70931   180.00000     4.39236   179.70931   180.00000     4.39236
     0.10000   179.66087   180.00000     4.39236   179.66087   180.00000     4.39236
     0.11000   179.61244   180.00000     4.39236   179.61244   180.00000     4.39236
     0.12000   179.61241   180.00000     4.39236   179.61241   180.00000     4.39236
     0.13000   179.56397   180.00000     4.39236   179.56397   180.00000     4.39236
     0.14000   179.51554   180.00000     4.39236   179.51554   180.00000     4.39236
     0.15000   179.51551   180.00000     4.39236   179.51551   180.00000     4.39236
     0.16000   179.46707   180.00000     4.39236   179.46707   180.00000     4.39236
     0.17000   179.41863   180.00000     4.39235   179.41863   180.00000     4.39235
     0.18000   179.37019   180.00000     4.39235   179.37019   180.00000     4.39235
     0.19000   179.37017   180.00000     4.39235   179.37017   180.00000     4.39235
     0.20000   179.32173   180.00000     4.39235   179.32173   180.00000     4.39235
     0.21000   179.27328   180.00000     4.39234   179.27328   180.00000     4.39234
     0.22000   179.27326   180.00000     4.39234   179.27326   180.00000     4.39234
